#   1 NUMBER                 Running object number                                     
#   2 ALPHAPEAK_SKY          Right ascension of brightest pix (native)                  [deg]
#   3 DELTAPEAK_SKY          Declination of brightest pix (native)                      [deg]
#   4 X_IMAGE                Object position along x                                    [pixel]
#   5 Y_IMAGE                Object position along y                                    [pixel]
#   6 FLAGS                  Extraction flags                                          
#   7 CLASS_STAR             S/G classifier output                                     
         1  58.8985450 -38.4632659    662.8802     58.7741   0  0.064
         2  58.4604024 -38.4668186   1897.9387     44.2332   0  0.866
         3  58.9670277 -38.4684498    470.3451     40.2341   0  0.016
         4  58.4195883 -38.4697603   2012.6796     34.3161   0  0.214
         5  58.8570457 -38.4694148    778.7927     36.9323   0  0.244
         6  58.5143107 -38.4719476   1745.9371     27.3258   0  0.802
         7  58.6033665 -38.4718289   1495.1895     28.9290   0  0.121
         8  58.5955575 -38.4732065   1516.4629     24.6543   0  0.054
         9  58.5316913 -38.4733728   1697.0723     21.6507   0  0.198
        10  58.5654028 -38.4717693   1600.1526     26.1099   0  0.501
        11  58.9893934 -38.4731328    408.9022     22.7925   0  0.293
        12  58.6785785 -38.4763556   1283.2445     12.4526   0  0.285
        13  59.1309640 -38.4733416      7.6020     20.7272   0  0.327
        14  58.9748518 -38.4751033    447.9965     13.1484   0  0.007
        15  58.6367110 -38.4754824   1401.3636     14.9383   0  0.507
        16  58.5111005 -38.4766629   1755.6351      9.8854   0  0.222
        17  58.6164834 -38.4768468   1457.4882      9.6966   2  0.109
        18  58.6196728 -38.4787953   1449.7085      3.4221   2  0.304
        19  59.1114587 -38.4753439     62.9374     13.8486   0  0.488
        20  58.6895761 -38.4780303   1252.5153      6.1392   8  0.092
        21  58.8563457 -38.4774710    782.1476      7.8048   0  0.357
        22  58.7630259 -38.4786132   1044.3622      4.5199   8  0.212
        23  58.7804126 -38.4775018    995.5067      8.0065   0  0.467
        24  59.1132473 -38.4783943     58.2490      2.7169   8  0.519
        25  58.9014119 -38.4790963    654.7983      2.3907   0  0.353
        26  58.4507865 -38.4751265   1924.6140     15.3905   0  0.476
        27  58.7736707 -38.4730577   1014.8406     23.8292   0  0.545
        28  59.0908755 -38.4745681    120.2621     16.4259   0  0.497
        29  58.9464624 -38.4734822    528.2328     22.0001   0  0.437
        30  58.4561197 -38.4726408   1909.4131     23.9163   0  0.522
        31  58.9240876 -38.4632355    589.1914     57.5252   0  0.045
        32  58.8850708 -38.4674465    700.9418     44.6576   0  0.079
        33  59.1156939 -38.4706093     51.6373     30.8963   0  0.390
        34  58.6129685 -38.4615642   1467.9559     66.8515   0  0.000
        35  58.6945525 -38.4697002   1238.3693     36.6805   2  0.573
        36  58.7626717 -38.4730575   1046.4504     24.3684   0  0.483
        37  58.8996277 -38.4735427    659.7373     21.9927   0  0.481
        38  58.6927818 -38.4666434   1243.1483     47.2648   2  0.829
        39  59.0780891 -38.4715464    156.9581     28.1254   0  0.477
        40  58.8048933 -38.4724971    926.6310     25.6237   0  0.417
        41  59.0174079 -38.4686331    326.7383     40.8440   0  0.513
        42  58.4369756 -38.4692550   1963.9581     36.0926   0  0.509
        43  58.6643913 -38.4724548   1322.5092     26.4754   0  0.484
        44  58.8187282 -38.4688811    887.5448     39.3218   0  0.434
        45  58.9826447 -38.4706450    426.1268     32.4166   0  0.518
        46  58.6023247 -38.4621051   1497.8929     62.4840   0  0.013
        47  58.9322557 -38.4671135    567.7623     45.0924   0  0.574
        48  58.5707663 -38.4567782   1586.9879     82.4412   0  0.454
        49  58.7736701 -38.4619465   1015.5728     62.4279   0  0.017
        50  58.7410302 -38.4688874   1107.6085     39.6081   0  0.460
        51  58.5019123 -38.4666422   1781.2458     45.7902   0  0.478
        52  58.8393057 -38.4688709    830.5479     39.1138   0  0.350
        53  58.9989582 -38.4683924    379.5788     39.7182   0  0.374
        54  58.9758363 -38.4470456    445.7540    116.6586   0  0.265
        55  58.7314549 -38.4616624   1129.9287     64.5221   0  0.309
        56  58.7172629 -38.4644347   1173.5773     53.8589   0  0.542
        57  58.7999205 -38.4588872    940.1902     74.5714   0  0.024
        58  58.7016628 -38.4544265   1219.4945     90.7352   0  0.028
        59  58.9077756 -38.4668667    636.6829     45.8802   0  0.467
        60  58.4909239 -38.4641168   1811.8861     55.2699   0  0.625
        61  58.5093726 -38.4638811   1760.1692     56.3266   0  0.511
        62  58.6452608 -38.4557693   1376.4664     85.8419   0  0.038
        63  58.9301197 -38.4637831    574.1505     57.4509   0  0.461
        64  59.1280745 -38.4630724     15.2145     57.6596   0  0.394
        65  58.7154973 -38.4536004   1179.0153     94.0574   0  0.215
        66  58.5175380 -38.4622321   1737.0802     61.6339   0  0.486
        67  58.4987465 -38.4594127   1789.9446     72.2402   0  0.391
        68  59.0280207 -38.4599992    298.5489     70.2593   0  0.641
        69  59.0918829 -38.4617873    117.8182     63.0937   0  0.479
        70  58.4618607 -38.4576556   1894.0725     78.3068   0  0.354
        71  58.7232964 -38.4605483   1157.5996     68.8348   0  0.488
        72  58.7562881 -38.4577790   1063.8134     79.1731   0  0.432
        73  59.1326654 -38.4588917      2.5118     72.9975   8  0.419
        74  58.6214916 -38.4571307   1443.7922     81.0190   0  0.538
        75  58.6289377 -38.4588065   1423.6677     74.6691   0  0.409
        76  59.0769727 -38.4593269    160.1736     72.1689   0  0.353
        77  58.8311223 -38.4410973    852.4727    138.5095   0  0.057
        78  58.9882727 -38.4545235    409.7097     89.4910   0  0.495
        79  58.9442867 -38.4540407    535.7397     92.8742   0  0.012
        80  58.6037565 -38.4565515   1493.4689     82.8604   2  0.484
        81  58.5094058 -38.4547144   1760.4294     89.4708   0  0.692
        82  59.1305273 -38.4569537      8.9116     79.6410   0  0.436
        83  58.5335265 -38.4547651   1692.1777     88.3497   0  0.563
        84  58.5970241 -38.4534862   1512.4415     93.4477   0  0.617
        85  58.4139898 -38.4539100   2028.8442     90.9615   0  0.490
        86  58.8233282 -38.4522123    875.6985     98.2665   0  0.508
        87  58.9584781 -38.4551302    494.3325     87.7584   0  0.460
        88  59.0510659 -38.4566134    233.2131     82.4020   0  0.347
        89  59.0833110 -38.4484768    142.3912    110.9871   0  0.029
        90  58.7222384 -38.4511033   1159.3948    102.8868   0  0.249
        91  58.4654350 -38.4512759   1883.7562    100.8612   0  0.247
        92  58.4306940 -38.4470145   1982.6012    114.9899   2  0.009
        93  58.4289049 -38.4503428   1986.6941    103.6521   2  0.574
        94  58.5353100 -38.4517131   1687.3331     99.5960   0  0.465
        95  58.5416999 -38.4500589   1668.7214    105.5963   0  0.554
        96  58.7509711 -38.4430559   1078.6665    131.4530   0  0.011
        97  58.8137482 -38.4472162    902.7303    118.8178   0  0.377
        98  58.6810918 -38.4524684   1275.7069     97.9839   0  0.394
        99  59.0889504 -38.4404061    124.5465    141.7677   0  0.010
       100  59.1152115 -38.4439436     51.5728    127.1907   2  0.036
       101  58.9077290 -38.4424221    636.7949    134.3924   0  0.340
       102  58.5619239 -38.4478740   1611.2719    114.4613   0  0.483
       103  58.4512691 -38.4462384   1924.7040    118.3457   0  0.500
       104  58.6225917 -38.4396319   1442.5327    142.8283   0  0.015
       105  59.1226554 -38.4430883     32.1108    130.9165   2  0.159
       106  59.1183995 -38.4431009     43.0562    129.7148   2  0.193
       107  58.5012949 -38.4419183   1783.0703    135.0991   0  0.104
       108  58.6161951 -38.4457349   1459.5449    121.6212   0  0.613
       109  58.6286064 -38.4468615   1424.2689    117.9637   0  0.497
       110  58.4151005 -38.4444687   2025.7972    125.1945   0  0.365
       111  58.5321498 -38.4419844   1696.1599    134.7333   0  0.512
       112  58.7066383 -38.4435959   1204.2196    130.4648   0  0.546
       113  58.4810785 -38.4421484   1840.2184    134.0650   0  0.547
       114  59.0570146 -38.4360433    215.5231    155.7317   0  0.097
       115  58.8265097 -38.4383218    865.9109    151.0615   0  0.225
       116  58.6265021 -38.4349144   1430.6910    160.6297   0  0.039
       117  59.0116477 -38.4436446    344.6604    128.8899   0  0.407
       118  58.8460149 -38.4385887    811.7985    148.1296   0  0.379
       119  58.4169241 -38.4341962   2021.1693    162.1944   0  0.061
       120  59.1244042 -38.4380830     25.8849    147.7414   0  0.326
       121  58.7413960 -38.4413872   1106.4875    137.5132   0  0.386
       122  59.1162556 -38.4397738     49.6300    142.5426   0  0.436
       123  58.5108716 -38.4416619   1755.7112    135.9907   0  0.410
       124  59.0825380 -38.4337564    143.9926    163.9282   2  0.145
       125  58.9094932 -38.4376977    632.9358    150.7814   0  0.578
       126  58.9456751 -38.4415386    529.9922    137.0000   0  0.352
       127  58.6949380 -38.4402556   1237.4967    142.0062   0  0.350
       128  58.8938822 -38.4335484    675.6998    165.3385   0  0.148
       129  59.1063049 -38.4353580     77.4949    158.2788   0  0.190
       130  58.7172804 -38.4405455   1173.9916    140.5035   0  0.413
       131  58.7406894 -38.4347203   1107.3944    161.5267   0  0.027
       132  58.9194229 -38.4376856    604.0045    151.3759   0  0.521
       133  58.9158732 -38.4360234    614.9247    157.2014   0  0.306
       134  58.9328802 -38.4293345    564.3601    181.6671   0  0.105
       135  58.7069986 -38.4372071   1202.9243    153.4187   0  0.548
       136  59.0949420 -38.4320563    108.8184    169.7475   0  0.307
       137  58.8772217 -38.4377313    722.4986    150.4964   0  0.356
       138  58.4428124 -38.4339929   1947.7521    162.7072   0  0.539
       139  58.9910110 -38.4220180    399.8389    204.8730   0  0.011
       140  58.6711894 -38.4310714   1303.9445    174.6789   0  0.016
       141  58.9938879 -38.4350683    394.0125    159.3801   0  0.482
       142  58.4864246 -38.4354945   1824.9934    158.0076   0  0.488
       143  58.8311120 -38.4288750    852.0383    182.7183   0  0.020
       144  58.4566400 -38.4345860   1908.9946    160.5147   0  0.365
       145  59.1300479 -38.4319547     11.1727    169.9342   0  0.434
       146  58.9977677 -38.4283942    382.3780    184.1140   0  0.085
       147  58.8240148 -38.4216562    871.9836    210.1190   0  0.013
       148  59.0623149 -38.4313080    200.3992    173.2795   0  0.461
       149  58.7247332 -38.4322152   1152.9198    171.1695   0  0.490
       150  58.4672925 -38.4312804   1878.8479    172.9263   0  0.433
       151  59.1005928 -38.4270406     92.4524    187.2214   0  0.594
       152  59.1051328 -38.4120276     79.3164    242.1849   2  0.012
       153  58.4925002 -38.4232866   1808.9532    202.2000   0  0.010
       154  58.5311392 -38.4258711   1699.3696    195.3338   0  0.005
       155  58.8491930 -38.4260865    801.0827    193.7105   0  0.061
       156  58.5701478 -38.4239990   1588.6324    199.9445   2  0.129
       157  59.0129702 -38.4150305    339.8148    232.0384   0  0.883
       158  58.5581154 -38.4162002   1623.1387    228.3143   2  0.210
       159  58.8048692 -38.4222189    926.5214    205.6129   0  0.038
       160  58.8750777 -38.4266220    728.7657    191.3274   0  0.515
       161  58.6034699 -38.4271063   1495.0184    188.5150   0  0.498
       162  58.7488474 -38.4288887   1085.1368    183.5787   0  0.487
       163  58.9523806 -38.4284727    511.1229    183.8725   0  0.463
       164  58.6403452 -38.4277081   1390.5963    187.2438   0  0.376
       165  58.4134685 -38.4158522   2032.1974    228.7324   2  0.000
       166  58.6548849 -38.4266121   1349.8778    191.1608   0  0.493
       167  58.6130653 -38.4171194   1468.3895    225.2228   0  0.019
       168  58.4081200 -38.4219472   2045.2911    205.7908   8  0.152
       169  58.9229357 -38.4218477    593.3736    206.5027   0  0.220
       170  58.6591454 -38.4230050   1337.7567    204.1634   0  0.547
       171  59.0076870 -38.4255968    354.6085    194.0145   0  0.494
       172  58.5740503 -38.4231722   1577.8414    203.7213   2  0.073
       173  58.4545912 -38.4165247   1915.1824    225.8089   0  0.024
       174  58.8754275 -38.4232883    728.4996    203.1998   0  0.485
       175  59.0285770 -38.4172196    296.0167    224.3546   0  0.548
       176  58.7041771 -38.4202610   1212.6558    214.2569   0  0.442
       177  58.6701391 -38.4213482   1306.4305    209.8796   0  0.497
       178  58.5652091 -38.4151016   1602.9325    231.2117   2  0.055
       179  58.7339598 -38.4186072   1126.6660    220.1157   0  0.593
       180  59.0856773 -38.4218034    134.7823    207.4442   0  0.477
       181  58.7676410 -38.4183350   1031.6051    221.0412   0  0.556
       182  58.9824935 -38.4192558    426.3094    216.8582   0  0.507
       183  58.4265781 -38.4175577   1993.8693    222.4925   0  0.219
       184  58.6432024 -38.4160445   1383.4869    229.1506   0  0.540
       185  58.4730107 -38.4204614   1862.2883    211.5682   0  0.475
       186  58.9523491 -38.4159727    511.1134    229.1022   0  0.074
       187  58.5567096 -38.4120310   1627.3708    242.5588   2  0.072
       188  58.6634088 -38.4171756   1326.0341    225.4009   0  0.523
       189  59.1321087 -38.4186149      4.0068    217.9865   0  0.438
       190  58.8527298 -38.4183063    791.5030    221.4884   0  0.465
       191  58.5262718 -38.3972497   1712.6292    295.8237   2  0.910
       192  58.9750277 -38.4120466    447.4183    242.8125   0  0.111
       193  58.4914751 -38.4132841   1812.0698    238.5629   0  0.193
       194  58.6010152 -38.4154361   1502.4115    231.3027   0  0.597
       195  58.7474358 -38.4074994   1088.8857    259.3415   0  0.024
       196  58.4294917 -38.4011771   1985.5803    280.5237   0  0.037
       197  58.7144669 -38.4099884   1181.9658    250.7980   0  0.087
       198  59.1090259 -38.4106276     69.7193    246.7157   2  0.198
       199  58.5949937 -38.4132050   1518.8718    238.7169   0  0.588
       200  58.5357893 -38.4133802   1685.7294    237.7469   0  0.370
       201  58.4152671 -38.4105798   2025.9349    246.0550   2  0.054
       202  58.4557019 -38.4056942   1911.3376    263.9953   0  0.039
       203  58.6421458 -38.4121544   1386.0166    243.1003   0  0.484
       204  58.9633253 -38.4106774    479.3116    247.5353   0  0.549
       205  58.5347502 -38.4058781   1688.1272    264.8401   0  0.046
       206  58.6680255 -38.4116241   1313.0757    245.7064   0  0.505
       207  59.0856337 -38.4118034    135.1489    243.2517   0  0.491
       208  58.5244845 -38.4016905   1718.3123    280.4560   2  0.036
       209  59.0441533 -38.4110734    251.9736    246.5141   0  0.279
       210  59.0260589 -38.4069472    303.5739    261.9988   0  0.157
       211  59.1320740 -38.4116705      3.8823    242.8736   0  0.481
       212  58.9200792 -38.4121290    602.4979    242.5035   0  0.368
       213  58.8746906 -38.4041222    729.7188    271.0850   0  0.546
       214  58.6467615 -38.4079926   1373.2555    258.3003   0  0.561
       215  58.6375438 -38.4085382   1398.8925    255.3950   0  0.498
       216  58.9484287 -38.4076452    521.3193    258.8932   0  0.485
       217  58.9083751 -38.4093654    635.1352    252.7014   0  0.374
       218  58.8296607 -38.3888755    857.0022    326.9433   0  0.379
       219  58.9877590 -38.4017460    410.8225    280.9462   0  0.056
       220  59.0919876 -38.4056751    116.8165    264.9008   0  0.453
       221  58.7587799 -38.4036121   1057.7737    273.9324   0  0.073
       222  58.5974905 -38.4068198   1512.1304    261.5981   0  0.478
       223  58.6942629 -38.4077549   1239.1432    259.2959   0  0.380
       224  58.8548382 -38.4021936    786.3096    278.6544   0  0.224
       225  58.5950146 -38.4045939   1518.9523    269.5791   0  0.585
       226  58.6251389 -38.4074125   1434.0022    259.7522   0  0.352
       227  58.7357461 -38.3902742   1122.1614    322.3195   0  0.765
       228  58.8225777 -38.3955455    877.1241    303.4785   0  0.102
       229  58.9714563 -38.4026082    457.3359    276.3834   0  0.567
       230  58.5992728 -38.4026557   1507.5209    277.6155   0  0.399
       231  58.4652775 -38.4046082   1885.4957    268.5025   0  0.454
       232  58.4947610 -38.3882915   1801.5787    327.9837   0  0.796
       233  58.4121275 -38.4002924   2034.9166    284.0312   0  0.296
       234  58.7488559 -38.4002774   1084.6176    285.6331   0  0.554
       235  59.0160843 -38.3925238    332.2903    312.2576   0  0.075
       236  58.8651138 -38.3994080    756.5138    288.4210   0  0.525
       237  58.9147371 -38.3999133    616.4167    287.6116   0  0.540
       238  58.8169094 -38.3994368    892.8897    289.8298   0  0.542
       239  58.8023745 -38.3933305    934.7440    310.6459   0  0.009
       240  59.0820443 -38.4015350    144.8045    280.3996   0  0.356
       241  58.8452601 -38.3947000    813.4323    306.3588   0  0.041
       242  58.7782741 -38.3916679   1001.9205    317.0212   0  0.330
       243  58.7616161 -38.3994457   1049.5074    289.3900   0  0.485
       244  58.6443304 -38.3791010   1380.1426    362.4829   2  0.017
       245  58.4415999 -38.3887112   1951.7513    326.2313   0  0.217
       246  58.4380088 -38.3989790   1962.1146    289.1483   0  0.387
       247  59.0472448 -38.3852326    242.8900    339.2017   0  0.861
       248  58.8087554 -38.3961064    915.7487    300.3244   0  0.492
       249  58.4521938 -38.3973514   1922.5232    295.3622   0  0.380
       250  58.7017164 -38.3980372   1218.2377    293.7786   0  0.479
       251  58.9629308 -38.3956779    481.0802    301.8291   0  0.209
       252  58.8587308 -38.3969129    775.0811    298.0759   0  0.481
       253  58.5907761 -38.3984764   1530.6676    291.6745   0  0.356
       254  58.5539318 -38.3925813   1631.3469    314.0435   0  0.001
       255  59.0036701 -38.3894934    365.3488    322.7793   0  0.227
       256  58.9345729 -38.3940541    561.0117    308.1316   0  0.492
       257  58.7793365 -38.3847233    998.5010    341.5581   0  0.010
       258  58.6390198 -38.3765952   1394.2219    370.3010   2  0.449
       259  59.0816695 -38.3968137    145.6711    297.3328   0  0.351
       260  58.4111139 -38.3902892   2037.4130    318.9221   0  0.095
       261  58.7112921 -38.3908201   1190.5139    319.5514   0  0.282
       262  58.7871353 -38.3958337    977.1349    302.1298   0  0.353
       263  58.5411959 -38.3853350   1670.0355    338.9091   0  0.019
       264  58.9065174 -38.3640895    642.3860    416.9341   0  0.029
       265  58.6687685 -38.3874579   1310.4773    332.1380   0  0.045
       266  58.9310238 -38.3918367    570.4330    314.9961   0  0.529
       267  58.9239374 -38.3926795    590.9459    312.1343   0  0.488
       268  58.5769663 -38.3934545   1570.3705    309.5874   0  0.495
       269  58.6017870 -38.3884925   1499.3828    327.7233   0  0.094
       270  58.9157831 -38.3913009    614.0940    317.7885   0  0.565
       271  59.0331031 -38.3944317    283.2025    305.5951   0  0.368
       272  58.5805360 -38.3837380   1559.2817    344.5562   0  0.254
       273  58.4589556 -38.3909804   1903.2605    318.5266   0  0.516
       274  59.1128345 -38.3914497     57.6366    316.2053   0  0.515
       275  58.4780867 -38.3926959   1850.7096    311.4473   0  0.491
       276  58.5422371 -38.3922815   1667.1971    314.7413   0  0.479
       277  58.5032726 -38.3866443   1779.1666    332.3970   0  0.195
       278  59.1184970 -38.3897665     41.3519    322.4650   0  0.458
       279  59.0688881 -38.3915689    182.1250    316.1278   0  0.476
       280  58.7045594 -38.3897054   1209.9253    323.8910   0  0.558
       281  58.7913855 -38.3861107    964.4382    337.5420   0  0.110
       282  58.6446997 -38.3704902   1379.6810    392.4183   2  0.012
       283  59.0397885 -38.3813609    263.0134    350.8743   0  0.208
       284  58.5660398 -38.3720471   1600.6602    386.4860   2  0.384
       285  58.6216352 -38.3874080   1444.0117    332.0025   0  0.492
       286  58.7006632 -38.3874810   1220.4244    331.8144   0  0.507
       287  58.4799112 -38.3796447   1843.6744    356.6201   0  0.099
       288  58.4239069 -38.3831050   2001.9591    345.5146   0  0.608
       289  59.0602788 -38.3657567    206.6270    408.5392   0  0.172
       290  58.8835193 -38.3830028    704.5060    348.1400   0  0.063
       291  59.0925987 -38.3837287    115.0999    344.0532   0  0.481
       292  58.9476509 -38.3795906    521.8350    359.3406   0  0.009
       293  58.5263608 -38.3708608   1713.8595    390.3832   0  0.293
       294  58.4178813 -38.3833650   2019.0721    344.6728   0  0.481
       295  58.7694141 -38.3788903   1026.6377    363.0677   0  0.411
       296  58.8523208 -38.3702507    793.6588    394.3202   2  0.559
       297  58.4543884 -38.3818015   1915.8256    351.1800   0  0.471
       298  58.6244804 -38.3824115   1435.9380    349.5708   0  0.488
       299  59.0720418 -38.3829497    172.3383    346.6663   0  0.353
       300  58.9710124 -38.3703865    457.4982    392.1431   0  0.296
       301  58.7559494 -38.3775006   1066.0748    366.9455   0  0.381
       302  59.0302128 -38.3791601    292.8406    361.0563   0  0.373
       303  59.0992938 -38.3753769     95.7066    374.4607   0  0.473
       304  59.0808008 -38.3595934    147.5949    430.5099   0  0.477
       305  59.1201615 -38.3675391     37.3556    401.5659   0  0.890
       306  58.7616195 -38.3713900   1048.5872    389.9228   0  0.018
       307  58.6850784 -38.3805263   1265.1989    356.7993   0  0.392
       308  58.7697685 -38.3738903   1026.7396    381.4199   0  0.608
       309  58.6227188 -38.3774093   1440.7610    368.6468   0  0.528
       310  58.6713377 -38.3227375   1303.8821    564.7090   0  0.994
       311  58.7453210 -38.3724988   1094.1951    385.2035   0  0.186
       312  58.8711107 -38.3788473    740.3575    363.0952   0  0.351
       313  58.8296507 -38.3766532    857.0626    370.7390   0  0.479
       314  58.7272544 -38.3669380   1145.2708    406.0359   0  0.024
       315  58.5143027 -38.3741686   1746.7942    379.3488   0  0.549
       316  58.4987271 -38.3702449   1791.1804    393.2149   0  0.071
       317  58.9501183 -38.3743091    518.4098    378.0797   0  0.562
       318  58.7864218 -38.3752781    978.6172    376.2422   0  0.513
       319  58.7059965 -38.3677617   1205.7240    402.3767   0  0.229
       320  58.9341769 -38.3757211    562.2322    374.3988   0  0.474
       321  58.4306816 -38.3742357   1983.6049    378.2080   0  0.556
       322  58.5699473 -38.3684427   1590.6395    399.5655   2  0.000
       323  58.4615052 -38.3748758   1895.7120    376.0005   0  0.437
       324  58.7176826 -38.3752675   1173.4924    376.0146   0  0.361
       325  58.9915756 -38.3747943    400.0093    377.2934   0  0.400
       326  58.6918277 -38.3652531   1245.0720    412.2555   0  0.018
       327  58.9341562 -38.3665544    561.2116    406.4474   0  0.032
       328  59.0556972 -38.3718790    219.0068    387.0031   0  0.513
       329  58.8980188 -38.3663212    663.3593    407.0324   0  0.001
       330  58.6075142 -38.3632226   1484.4006    419.1524   0  0.011
       331  58.8374347 -38.3644267    835.6905    414.5192   0  0.215
       332  58.7733111 -38.3602791   1016.3908    429.6076   0  0.024
       333  58.5490414 -38.3692387   1649.5898    397.2355   0  0.231
       334  58.5639274 -38.3673212   1606.6392    404.5315   2  0.090
       335  58.9189243 -38.3676857    602.6224    403.7140   0  0.006
       336  58.7045864 -38.3599831   1209.9446    431.2622   0  0.029
       337  58.8179526 -38.3688807    889.9860    398.8249   0  0.490
       338  58.5805862 -38.3645713   1559.1661    414.6346   0  0.046
       339  58.7669343 -38.3675013   1033.1704    403.6466   0  0.176
       340  58.5097305 -38.3647141   1759.7209    415.0228   0  0.277
       341  58.7371768 -38.3616634   1118.3257    424.9891   0  0.023
       342  58.9862184 -38.3606374    417.1785    427.0332   0  0.172
       343  59.0981805 -38.3642687     98.7020    414.6184   0  0.522
       344  59.0918221 -38.3684529    117.2810    399.4311   0  0.359
       345  59.0730224 -38.3632247    170.2179    417.7956   0  0.566
       346  58.4587364 -38.3595906   1903.8361    430.3977   0  0.544
       347  58.9383953 -38.3612707    549.0441    426.7430   0  0.456
       348  58.8462912 -38.3641436    809.7685    415.5756   0  0.530
       349  58.7389513 -38.3541638   1111.8036    452.0007   0  0.065
       350  59.0266212 -38.3655567    301.0007    409.9921   0  0.419
       351  59.0867854 -38.3509663    131.8174    460.2343   0  0.109
       352  58.4424447 -38.3587132   1950.6820    434.0225   2  0.614
       353  58.4867037 -38.3643833   1824.6410    414.4553   0  0.469
       354  58.8253858 -38.3597107    869.7765    432.4708   0  0.051
       355  58.9794274 -38.3398162    433.5777    502.9666   0  0.129
       356  58.4516600 -38.3576273   1924.3339    437.8162   0  0.176
       357  58.4371310 -38.3586983   1964.3702    433.3979   2  0.304
       358  58.4264891 -38.3617234   1994.8867    423.5420   0  0.551
       359  59.1314392 -38.3555606      5.8109    445.6001   0  0.065
       360  58.5203865 -38.3566815   1730.4198    441.5948   2  0.017
       361  58.4173081 -38.3555852   2021.5127    445.1824   2  0.003
       362  58.7942119 -38.3599989    956.4736    430.5724   0  0.606
       363  58.8487615 -38.3552531    803.4293    448.5168   0  0.193
       364  58.8689627 -38.3627379    745.7350    421.3707   0  0.428
       365  58.8746245 -38.3582886    730.2927    437.4363   0  0.829
       366  58.5813136 -38.3573502   1557.1345    440.4812   0  0.152
       367  58.6202833 -38.3557394   1448.4553    445.8457   0  0.018
       368  58.8912777 -38.3604950    682.6196    428.8116   0  0.522
       369  58.5554427 -38.3611949   1633.5353    426.3361   0  0.522
       370  58.6659699 -38.3621775   1318.5076    423.0042   0  0.476
       371  58.5235794 -38.3552993   1721.3420    446.5948   2  0.249
       372  58.5876913 -38.3568047   1539.8334    442.4546   0  0.206
       373  58.8073181 -38.3577733    920.0376    439.4591   0  0.351
       374  58.6170876 -38.3593465   1457.2965    432.5355   0  0.517
       375  58.9284749 -38.3607288    577.5027    427.5065   0  0.420
       376  58.4679516 -38.3585034   1877.5635    435.4049   0  0.519
       377  58.7669347 -38.3572235   1033.9473    440.5093   0  0.526
       378  58.9447479 -38.3512614    531.9467    462.5049   0  0.117
       379  58.4141679 -38.3458534   2029.7218    480.9850   0  0.019
       380  58.6089591 -38.3507245   1480.4988    463.5785   0  0.420
       381  58.4974157 -38.3421861   1794.3790    493.6671   0  0.485
       382  58.4134280 -38.3522402   2032.0885    456.6057   2  0.440
       383  58.9188997 -38.3557412    605.1570    445.9807   0  0.483
       384  58.8151047 -38.3469372    898.4180    477.7244   0  0.048
       385  58.5841561 -38.3540214   1550.2904    451.4569   0  0.576
       386  58.5823987 -38.3487408   1555.3707    470.8418   0  0.529
       387  59.0502891 -38.3477251    234.4093    474.1733   0  0.904
       388  59.1264622 -38.3519645     17.9884    458.0397   0  0.286
       389  58.9121639 -38.3529717    624.2095    457.1669   0  0.509
       390  58.6564459 -38.3360575   1346.3942    517.1375   0  0.023
       391  58.9971498 -38.3445057    383.9688    485.8022   0  0.099
       392  58.7779156 -38.3525011   1003.2371    458.1969   0  0.520
       393  58.8724885 -38.3507904    736.4712    464.1955   0  0.383
       394  58.9876063 -38.3509126    410.5768    462.9751   0  0.349
       395  58.7538291 -38.3522224   1071.1155    458.9454   0  0.495
       396  58.4973853 -38.3502417   1794.6190    464.8315   0  0.457
       397  58.6482797 -38.3485494   1369.0721    470.5973   0  0.402
       398  58.7694145 -38.3519458   1026.5067    460.9150   0  0.484
       399  58.7563090 -38.3500005   1063.9993    467.0022   0  0.508
       400  58.9033019 -38.3493709    649.0504    468.8768   0  0.522
       401  58.8321064 -38.3477629    851.1185    475.0460   0  0.301
       402  58.9295132 -38.3496163    575.2692    467.9985   0  0.366
       403  58.9723668 -38.3478841    453.9649    473.9571   0  0.503
       404  58.7223067 -38.3483249   1159.6310    472.6328   0  0.358
       405  58.8809792 -38.3441161    711.5768    487.0637   0  0.073
       406  58.5997687 -38.3426560   1505.0032    492.8639   0  0.146
       407  58.5795754 -38.3448473   1562.8645    485.0325   0  0.563
       408  58.6702421 -38.3469034   1307.0143    477.5013   0  0.439
       409  58.8384758 -38.3413705    831.5428    496.8877   0  0.065
       410  59.1200609 -38.3467058     36.7447    477.2513   0  0.418
       411  58.7679982 -38.3336123   1031.2383    526.3189   0  0.377
       412  58.6365990 -38.3443701   1402.0885    486.7709   0  0.522
       413  58.6486628 -38.3313275   1371.4259    534.5934   0  0.008
       414  58.5023904 -38.3377530   1781.4978    510.6865   0  0.012
       415  58.4081703 -38.3411129   2046.7797    497.2310   8  0.543
       416  58.6259748 -38.3438020   1432.2068    489.1192   0  0.470
       417  59.1324255 -38.3402796      2.1455    500.0717   8  0.498
       418  58.9195727 -38.3385181    602.9651    508.3440   0  0.348
       419  58.7123968 -38.3388760   1188.1058    506.9873   0  0.555
       420  58.5229203 -38.3408534   1723.0084    498.9905   0  0.443
       421  58.8342229 -38.3380395    844.5459    510.0936   0  0.188
       422  58.7662273 -38.3383345   1036.5222    508.3956   0  0.492
       423  58.4705267 -38.3354542   1870.3164    516.9668   0  0.505
       424  59.1313353 -38.3347273      4.7422    519.7321   8  0.649
       425  58.8490909 -38.3324750    801.8696    530.0385   0  0.076
       426  59.1214291 -38.3367016     32.1087    513.2512   0  0.479
       427  58.7952642 -38.3294430    953.8886    541.4220   0  0.017
       428  59.0884589 -38.3287394    123.5260    542.2566   0  0.014
       429  58.8668023 -38.3366285    751.8690    515.4005   0  0.503
       430  59.0845818 -38.3329165    137.4338    526.5474   0  0.417
       431  58.4620512 -38.3298768   1893.6017    538.5190   0  0.004
       432  58.9705467 -38.3301093    457.4106    538.4158   0  0.037
       433  58.7251517 -38.3299926   1152.8995    539.1202   0  0.424
       434  58.9790181 -38.3206501    434.3867    571.3900   0  0.023
       435  58.8671457 -38.3285726    751.3051    543.9350   0  0.210
       436  59.0604928 -38.3307559    205.0388    534.6064   0  0.477
       437  58.9121112 -38.3260272    624.0952    554.8239   0  0.569
       438  59.1143160 -38.3303336     52.5318    535.7659   0  0.501
       439  58.8260682 -38.3258214    866.8409    553.9712   0  0.218
       440  58.4850888 -38.3246569   1830.3984    556.8325   0  0.330
       441  58.6957602 -38.3308111   1234.6102    536.5926   0  0.376
       442  58.9046666 -38.3213137    645.3964    569.8025   0  0.104
       443  58.8221737 -38.3263787    877.6750    552.1037   0  0.352
       444  59.1238133 -38.3172499     26.1240    583.3499   0  0.438
       445  58.6327321 -38.3290878   1412.4722    541.9979   0  0.400
       446  58.6529266 -38.3224429   1354.8147    565.6282   0  0.008
       447  59.0282491 -38.3252751    296.1677    554.8913   0  0.581
       448  58.5035254 -38.3180332   1774.7642    578.4709   0  0.003
       449  58.7371928 -38.3266633   1118.5859    551.1301   0  0.469
       450  58.5863654 -38.3209691   1544.2233    571.3579   2  0.056
       451  58.5587381 -38.3245340   1622.6514    558.1917   0  0.515
       452  58.9627350 -38.3220667    480.7091    567.4523   0  0.069
       453  58.7201992 -38.3227684   1165.2040    564.5639   0  0.637
       454  58.7276350 -38.3222157   1144.3138    565.7688   0  0.113
       455  58.5821268 -38.3170735   1555.2277    583.1852   2  0.002
       456  58.9726512 -38.3228834    452.9360    563.9979   0  0.512
       457  58.7970314 -38.3205537    948.4015    572.5307   0  0.412
       458  58.4249072 -38.3219962   2000.2056    566.5896   0  0.498
       459  58.8466022 -38.3230321    809.0363    564.2605   0  0.448
       460  58.6986054 -38.3183128   1226.1694    580.6608   0  0.228
       461  58.4964277 -38.3224615   1797.9355    564.7286   0  0.493
       462  59.0986950 -38.3214891     96.8291    568.0663   0  0.381
       463  59.0749704 -38.3209971    163.9893    569.8925   0  0.495
       464  58.5130995 -38.3138878   1751.7886    595.6316   0  0.172
       465  59.0197339 -38.3202934    319.4669    573.6516   0  0.456
       466  58.6589623 -38.3116154   1338.9376    604.7669   0  0.045
       467  58.6387669 -38.3207613   1395.3923    572.3868   0  0.444
       468  58.9453757 -38.3179270    530.0429    581.8497   0  0.529
       469  58.5704350 -38.3201099   1588.9885    574.4995   0  0.389
       470  59.0699699 -38.3104543    177.7439    608.2622   0  0.026
       471  58.8476585 -38.3174759    806.2855    583.8793   0  0.124
       472  58.8352689 -38.3197056    841.2779    576.4897   0  0.367
       473  58.7386115 -38.3211081   1114.4900    571.4931   0  0.361
       474  58.9981329 -38.3192259    381.0041    577.4956   0  0.449
       475  58.8395120 -38.3138698    828.4376    596.9779   0  0.080
       476  59.0193550 -38.3130719    321.6193    598.5021   0  0.251
       477  58.4946869 -38.3146796   1802.6864    593.1118   0  0.546
       478  58.7577312 -38.3191672   1059.5155    578.0042   0  0.389
       479  58.7963171 -38.3033316    950.9022    634.7010   0  0.905
       480  58.9857138 -38.3100825    416.0985    609.7286   0  0.011
       481  58.7754334 -38.3138900   1010.1639    596.4271   0  0.136
       482  59.0582931 -38.3118722    211.0292    602.7921   0  0.021
       483  58.8402238 -38.3177583    826.6904    582.2680   0  0.507
       484  58.5828542 -38.3095746   1554.3700    611.5266   0  0.025
       485  58.4398046 -38.3162054   1957.3312    586.8834   0  0.494
       486  58.9577551 -38.3131858    494.8905    599.4489   0  0.353
       487  58.4543130 -38.3179118   1917.0029    580.5062   0  0.374
       488  58.4689916 -38.2787832   1875.0468    722.2994   0  0.028
       489  58.9697980 -38.3153883    461.2973    590.1888   0  0.486
       490  58.5708265 -38.3064994   1587.9049    624.9279   0  0.000
       491  58.6515280 -38.3116081   1359.6705    605.1237   0  0.539
       492  58.7308278 -38.3108279   1136.1189    606.9700   0  0.057
       493  58.6380740 -38.3124272   1396.4404    601.7574   0  0.054
       494  59.1212879 -38.3075351     32.4641    618.0057   0  0.130
       495  58.6890539 -38.3113621   1254.1501    606.1588   0  0.699
       496  59.1145804 -38.3114438     51.9663    603.8509   0  0.486
       497  58.6621539 -38.3080072   1330.2397    617.5616   0  0.020
       498  58.6154233 -38.3093441   1462.7490    612.8918   0  0.572
       499  58.6437426 -38.3099334   1382.0033    610.5409   0  0.035
       500  58.7060478 -38.3099837   1206.3512    610.7493   0  0.567
       501  58.6791443 -38.3091327   1281.5215    614.1201   0  0.310
       502  59.0773571 -38.2993241    156.6551    648.0699   0  0.000
       503  58.8172066 -38.3111030    892.7136    607.9825   0  0.544
       504  58.4575293 -38.3109759   1907.8649    606.3882   0  0.446
       505  58.9202241 -38.3110171    601.1392    606.8478   0  0.478
       506  58.6590314 -38.2666153   1339.7786    768.4480   0  0.248
       507  58.9588035 -38.3079063    491.4179    618.5226   0  0.721
       508  58.4210888 -38.3061515   2011.1025    622.8999   0  0.004
       509  58.6975608 -38.3008121   1229.8566    643.5499   0  0.072
       510  59.0306598 -38.3063808    289.0950    622.9911   0  0.482
       511  58.4101151 -38.3061185   2042.4032    622.7966   0  0.541
       512  59.0370327 -38.3066444    271.6272    622.3168   0  0.526
       513  59.0472761 -38.3007874    242.4504    642.2880   0  0.176
       514  58.4278198 -38.3050601   1992.5819    626.7897   0  0.178
       515  59.1258504 -38.2994658     17.5605    646.5413   0  0.064
       516  58.9531311 -38.3045819    508.6039    629.9127   0  0.526
       517  59.0625234 -38.3074174    199.1597    618.9278   0  0.492
       518  58.8848141 -38.3055012    700.6674    626.9867   0  0.534
       519  58.8168442 -38.2980476    892.8018    653.7160   0  0.025
       520  58.7655218 -38.2972233   1038.3195    657.1351   0  0.013
       521  58.9325890 -38.2996119    566.6898    648.8380   0  0.339
       522  58.5312235 -38.2930924   1700.6603    670.9526   0  0.566
       523  58.7842813 -38.3000003    985.6737    646.7426   0  0.557
       524  58.7481798 -38.2927769   1086.6644    672.8832   0  0.110
       525  59.0547072 -38.3002142    220.4647    644.7366   0  0.368
       526  58.6795088 -38.3007996   1281.4176    643.7522   0  0.472
       527  59.0720166 -38.2918378    171.7139    674.5723   0  0.301
       528  59.0436758 -38.2846846    252.0369    700.4541   2  0.162
       529  58.8228587 -38.2944339    876.4921    667.6042   0  0.250
       530  59.0614257 -38.2985311    201.8049    650.8996   0  0.516
       531  59.0355943 -38.3005365    275.1400    644.1282   0  0.421
       532  58.8667528 -38.2994062    751.9991    648.5151   0  0.491
       533  59.0359178 -38.2922024    273.7912    674.0034   2  0.031
       534  58.8041023 -38.2986074    928.6898    651.7273   0  0.490
       535  58.6554482 -38.2952231   1348.0488    662.9853   0  0.260
       536  58.6327905 -38.2982544   1413.1105    652.6445   0  0.467
       537  58.9046188 -38.2954803    644.8408    663.6522   0  0.280
       538  58.6943801 -38.2960879   1238.8273    661.2386   0  0.521
       539  58.6643010 -38.2921758   1324.0778    674.3826   0  0.490
       540  58.5623617 -38.2956514   1612.0306    662.1606   0  0.532
       541  58.4968761 -38.2974623   1796.9031    654.3962   0  0.427
       542  58.4441343 -38.2981618   1945.6808    651.8793   0  0.355
       543  58.6972155 -38.2922008   1230.9797    675.1451   0  0.134
       544  58.6331676 -38.2860326   1412.2992    697.0639   0  0.617
       545  58.8932858 -38.2913260    677.1793    677.5328   0  0.220
       546  58.5754671 -38.2920626   1575.2418    675.3137   0  0.295
       547  58.5984686 -38.2934872   1509.9133    669.8194   0  0.044
       548  59.0890108 -38.2931821    124.5490    669.2111   0  0.437
       549  58.5120938 -38.2980522   1754.4932    653.4949   0  0.351
       550  58.7694152 -38.2902789   1027.0161    679.3891   0  0.004
       551  58.5920911 -38.2962556   1528.3403    659.5295   0  0.490
       552  59.1180194 -38.2903224     42.3695    680.1752   0  0.111
       553  59.0666964 -38.2890735    186.5652    685.0181   0  0.073
       554  58.4905768 -38.2788364   1814.9021    722.2948   0  0.518
       555  58.4551454 -38.2893027   1912.6942    683.3129   0  0.020
       556  58.9078005 -38.2935322    635.7523    669.3764   0  0.508
       557  59.0309579 -38.2908245    287.5124    678.8029   2  0.378
       558  58.4782399 -38.2668620   1849.7399    764.6606   0  0.969
       559  59.0465143 -38.2866225    244.3057    694.1010   2  0.072
       560  59.0588961 -38.2854817    208.6891    698.5066   0  0.150
       561  58.8922165 -38.2868826    680.3925    693.6638   0  0.035
       562  58.9378746 -38.2893267    550.6000    684.8282   0  0.336
       563  58.9750434 -38.2923236    445.9933    673.6555   0  0.483
       564  58.4869959 -38.2896612   1825.0729    682.3510   0  0.361
       565  58.4243409 -38.2922720   2000.8391    672.8118   0  0.484
       566  58.7726003 -38.2880567   1017.7966    689.3802   0  0.577
       567  58.7478275 -38.2874990   1086.9733    692.7058   0  0.266
       568  58.4562468 -38.2801389   1912.0402    717.0486   0  0.046
       569  58.5379748 -38.2847725   1680.6295    699.4410   0  0.484
       570  58.7071299 -38.2869287   1203.6549    693.6856   0  0.578
       571  58.7956030 -38.2855540    952.6335    698.0369   0  0.506
       572  58.7566757 -38.2836115   1062.8352    704.0475   0  0.352
       573  58.7209331 -38.2849908   1164.6229    701.0497   0  0.600
       574  59.0974674 -38.2848256     99.1210    699.7244   0  0.456
       575  58.7846323 -38.2847225    986.0082    702.8718   0  0.459
       576  59.0985027 -38.2789893     97.0404    720.9520   0  0.052
       577  58.4397556 -38.2492603   1958.6078    828.1426   0  0.890
       578  58.4169775 -38.2780834   2021.0363    723.3978   0  0.140
       579  58.5570870 -38.2839753   1628.0673    704.3869   0  0.457
       580  58.8596535 -38.2830229    771.9999    707.8244   0  0.440
       581  58.6813034 -38.2805232   1276.1785    717.3313   0  0.003
       582  58.4265342 -38.2775561   1996.5594    726.6139   0  0.003
       583  58.9555515 -38.2820780    501.5981    711.2001   0  0.452
       584  58.8377137 -38.2835930    833.8043    706.3986   0  0.360
       585  58.8918385 -38.2724386    682.5807    747.2906   0  0.010
       586  58.7340300 -38.2786067   1127.4424    724.0936   0  0.421
       587  59.0510751 -38.2763339    230.9916    730.3969   0  0.238
       588  59.0807849 -38.2732039    146.5238    742.0101   0  0.011
       589  58.7970135 -38.2719426    949.1312    747.2650   0  0.152
       590  58.8734479 -38.2782894    732.9985    724.8510   0  0.470
       591  58.5882500 -38.2754163   1538.6146    734.4861   0  0.049
       592  58.5079418 -38.2716540   1765.7222    747.7381   0  0.022
       593  58.9958574 -38.2706189    385.1732    751.8606   0  0.002
       594  58.8451372 -38.2758107    812.0764    734.0765   0  0.393
       595  58.6133918 -38.2665635   1468.0897    767.5433   0  0.049
       596  58.6119512 -38.2782283   1472.4802    725.0028   0  0.384
       597  58.5946279 -38.2718148   1521.3690    748.3079   0  0.008
       598  58.9459856 -38.2773704    528.1445    728.5330   0  0.480
       599  58.5211351 -38.2419602   1730.0906    855.6577   0  0.042
       600  58.8553943 -38.2721927    784.0958    747.0647   0  0.086
       601  58.7435862 -38.2727759   1100.0922    745.4801   0  0.115
       602  58.7043220 -38.2613716   1210.5616    784.8391   0  0.025
       603  58.4662003 -38.2693316   1883.5719    756.6312   0  0.716
       604  58.6406216 -38.2735410   1389.6694    742.4713   0  0.494
       605  59.0156739 -38.2714127    330.3762    748.2259   0  0.500
       606  59.0631013 -38.2751935    196.6445    734.9110   0  0.486
       607  58.9066886 -38.2668668    638.8387    766.0131   0  0.151
       608  58.5192640 -38.2716786   1734.0060    747.9561   0  0.604
       609  58.6788411 -38.2688546   1282.1517    758.9203   0  0.037
       610  58.5702119 -38.2726093   1590.4967    744.4083   0  0.494
       611  58.6675307 -38.2607897   1314.5791    788.0474   0  0.224
       612  58.6091678 -38.2568356   1479.1019    802.3704   0  0.165
       613  59.0372579 -38.2716437    270.3749    748.0735   0  0.469
       614  58.7641080 -38.2738899   1042.3302    740.6741   0  0.362
       615  58.8564429 -38.2613586    779.8483    786.5295   0  0.080
       616  58.8161139 -38.2624922    895.2132    782.4800   0  0.019
       617  59.0414768 -38.2644118    257.3454    775.7786   0  0.001
       618  58.5804874 -38.2670707   1561.4456    765.2261   0  0.527
       619  59.0807552 -38.2662595    145.5302    768.2832   2  0.037
       620  59.1288727 -38.2664009     10.9383    766.0786   0  0.757
       621  59.0057579 -38.2686551    358.8084    758.7465   0  0.537
       622  59.0029222 -38.2669941    367.0333    764.1296   0  0.502
       623  58.5691635 -38.2678853   1592.6222    762.0869   0  0.325
       624  58.7920568 -38.2613880    964.3148    787.4456   0  0.469
       625  58.4403861 -38.2662067   1956.7720    767.4861   0  0.190
       626  58.6756720 -38.2571854   1290.9060    800.0091   0  0.278
       627  58.8079765 -38.2613840    917.3838    787.0981   0  0.020
       628  59.0814497 -38.2632021    145.0964    777.2139   2  0.362
       629  58.6880448 -38.2646947   1256.6361    774.0408   0  0.654
       630  58.5284837 -38.2655867   1708.6292    769.7273   0  0.484
       631  58.4156489 -38.2603015   2026.7469    788.0220   0  0.195
       632  58.6236653 -38.2599100   1438.7488    790.5060   0  0.180
       633  58.5610517 -38.2589823   1615.6801    794.2428   0  0.047
       634  58.8695278 -38.2580150    744.4842    798.6157   0  0.283
       635  59.0492121 -38.2518937    237.2247    819.6413   0  0.035
       636  59.1139843 -38.2603340     52.8401    787.8730   2  0.495
       637  58.9597154 -38.2504046    488.6254    824.4969   0  0.027
       638  58.6809837 -38.2527451   1276.9067    816.8438   0  0.023
       639  59.1083150 -38.2584059     68.8963    794.6212   0  0.497
       640  59.1309334 -38.2538945      5.1969    810.5625   0  0.511
       641  58.9728176 -38.2556607    451.8945    806.4873   0  0.089
       642  59.0853160 -38.2573584    133.6195    798.1500   0  0.468
       643  58.9084307 -38.2526980    633.6935    816.8352   0  0.154
       644  59.0106699 -38.2561452    345.0732    804.1116   0  0.078
       645  58.8857758 -38.2424446    698.0712    853.8073   0  0.871
       646  58.7641095 -38.2561121   1041.4504    805.1651   0  0.515
       647  58.6095590 -38.2398916   1479.3691    863.4181   0  0.877
       648  58.6176589 -38.2562913   1455.9728    804.6559   0  0.531
       649  58.5108180 -38.2588825   1757.5011    794.4973   0  0.379
       650  58.9151554 -38.2546344    614.8353    809.5894   0  0.380
       651  58.4518000 -38.2451268   1924.5194    843.2686   0  0.684
       652  59.0899001 -38.2540127    120.5152    810.7251   0  0.524
       653  58.5317262 -38.2478155   1698.9318    833.8104   0  0.013
       654  59.0623155 -38.2557509    198.6913    804.3010   0  0.460
       655  58.5783917 -38.2567895   1567.1682    802.1735   0  0.348
       656  58.7832116 -38.2558338    987.9967    806.1940   0  0.441
       657  58.6151916 -38.2521214   1463.6959    818.8826   0  0.503
       658  59.0148924 -38.2494698    332.8912    828.6256   0  0.526
       659  58.8942655 -38.2432693    674.2554    851.3041   0  0.013
       660  59.0605168 -38.2482553    204.1463    831.6617   0  0.612
       661  59.0883904 -38.2323500    125.4883    889.3127   0  0.144
       662  58.5999860 -38.2501560   1505.1980    825.2480   0  0.476
       663  58.5798395 -38.2442918   1563.4524    847.6630   0  0.247
       664  58.8765846 -38.2455088    723.7496    843.5090   0  0.249
       665  58.7842714 -38.2486114    984.4840    831.4698   0  0.502
       666  59.1121345 -38.2431170     57.7574    850.0029   0  0.443
       667  58.6887695 -38.2494174   1255.2897    829.2468   0  0.680
       668  58.6237000 -38.2426878   1439.4467    852.8456   0  0.032
       669  58.9575745 -38.2431858    494.5661    849.2806   0  0.040
       670  58.8111492 -38.2413829    908.5421    858.7906   2  0.024
       671  58.9455567 -38.2462598    528.8090    840.1686   0  0.091
       672  58.8857868 -38.2493890    698.2344    828.4888   0  0.388
       673  58.7358168 -38.2416627   1121.7043    857.6609   0  0.051
       674  58.8387450 -38.2513702    830.5150    822.4987   0  0.359
       675  58.6951426 -38.2433105   1235.4523    850.3409   0  0.141
       676  59.0272576 -38.2452769    297.6765    842.9879   0  0.563
       677  58.7711841 -38.2386122   1022.1668    868.0735   2  0.264
       678  58.8245854 -38.2369331    871.0493    874.1855   0  0.513
       679  58.7973585 -38.2483314    947.3760    833.1280   0  0.477
       680  58.5055632 -38.2447041   1773.4452    839.2150   2  0.452
       681  58.7117616 -38.2483199   1190.2963    833.0015   0  0.367
       682  58.7641107 -38.2422232   1040.5879    855.2995   0  0.040
       683  59.0527169 -38.2435520    225.7714    848.9725   0  0.175
       684  58.5511883 -38.2450754   1643.8976    844.6050   0  0.582
       685  58.4171315 -38.2464170   2022.9141    838.6302   0  0.355
       686  58.5607444 -38.2428706   1617.8892    851.9435   0  0.093
       687  58.6863057 -38.2388601   1262.5376    867.6798   2  0.051
       688  58.4252732 -38.2450522   2000.1301    843.0120   0  0.384
       689  58.6901987 -38.2363628   1250.6399    875.3154   2  0.041
       690  58.7902823 -38.2408328    967.9029    860.2543   0  0.300
       691  58.8111468 -38.2372163    908.1331    873.5829   2  0.040
       692  58.9345827 -38.2421090    560.2139    855.1485   0  0.533
       693  58.8557148 -38.2438591    782.5748    848.7635   0  0.469
       694  58.6452859 -38.2360460   1377.6731    877.8274   0  0.010
       695  58.9529780 -38.2437486    508.4885    848.9969   0  0.466
       696  58.6512884 -38.2418855   1360.7448    855.3846   0  0.427
       697  59.0778238 -38.2423781    155.4271    852.8526   0  0.372
       698  58.4886088 -38.2388315   1821.1641    865.1806   0  0.514
       699  58.7464270 -38.2416654   1092.8834    857.5468   0  0.509
       700  58.6258458 -38.2307460   1433.0812    896.1059   0  0.036
       701  59.0993139 -38.2237089     92.7133    920.6707   0  0.074
       702  58.7733059 -38.2336122   1015.3195    886.4005   0  0.236
       703  58.7867448 -38.2372222    978.3459    872.8015   0  0.462
       704  59.0682437 -38.2349026    182.5491    880.0943   0  0.528
       705  58.7308678 -38.2372167   1136.4696    873.4724   0  0.499
       706  58.9260742 -38.2326760    584.3097    889.2762   0  0.391
       707  59.1078271 -38.2295182     67.5537    897.6797   0  0.070
       708  58.5692550 -38.2348298   1592.6515    880.7276   0  0.510
       709  58.6339843 -38.2279779   1409.3684    905.7974   0  0.053
       710  58.8330713 -38.2349844    847.2225    881.2667   0  0.467
       711  58.4154240 -38.2339118   2028.4521    883.2565   0  0.542
       712  58.7878035 -38.2277776    974.9276    907.1418   0  0.310
       713  59.0045604 -38.2264352    362.0530    910.5645   2  0.000
       714  58.7637580 -38.2313898   1043.2307    894.7488   0  0.239
       715  58.6937440 -38.2280318   1241.1698    905.6757   0  0.246
       716  58.4207540 -38.2286499   2013.0123    902.8245   0  0.172
       717  58.5586627 -38.2289779   1625.0811    904.3257   0  0.018
       718  58.8564103 -38.2338586    781.0010    885.2953   0  0.393
       719  58.5268441 -38.2269721   1712.9325    908.3504   0  0.197
       720  59.0463063 -38.2319004    244.0043    890.5100   0  0.467
       721  59.0501919 -38.2307802    232.5177    894.9923   0  0.455
       722  59.1127476 -38.2231151     56.5239    922.7144   0  0.023
       723  58.8344780 -38.2260948    842.4364    913.7679   0  0.052
       724  58.6583837 -38.2277258   1340.7168    906.4797   0  0.199
       725  58.7319351 -38.2252727   1134.1492    916.0043   0  0.340
       726  58.6495541 -38.2213282   1365.8082    929.5182   0  0.023
       727  59.0314251 -38.2238787    285.7274    920.4378   0  0.261
       728  59.0568528 -38.2160419    213.2174    947.2485   2  0.009
       729  59.0522631 -38.2177196    228.3871    941.1453   2  0.197
       730  58.9479613 -38.2170895    520.1777    944.5226   0  0.011
       731  58.4752485 -38.2193543   1859.0808    936.1146   2  0.183
       732  58.8786712 -38.2216180    717.6044    929.4733   0  0.142
       733  59.0611053 -38.2185315    201.3270    939.6360   2  0.022
       734  58.4586250 -38.2207004   1906.0488    931.0912   0  0.139
       735  59.0770180 -38.2190467    156.1970    937.2831   0  0.465
       736  58.5063452 -38.2241502   1771.1229    918.7117   0  0.471
       737  58.8811526 -38.2257824    711.0128    913.9958   0  0.411
       738  58.5452555 -38.2192309   1661.0519    936.8765   0  0.134
       739  58.9235765 -38.2221237    590.7350    926.6147   0  0.103
       740  58.8670057 -38.2235726    751.1644    921.8474   0  0.385
       741  58.9154498 -38.2249118    614.1793    917.1753   0  0.367
       742  58.5820421 -38.2131842   1555.5087    958.6230   0  0.000
       743  58.6933992 -38.2196983   1241.5417    935.7717   0  0.119
       744  58.8875124 -38.2227206    692.8826    925.5459   0  0.489
       745  58.7040044 -38.2216491   1211.9431    928.9664   0  0.314
       746  59.0911667 -38.2203980    116.3354    932.1525   0  0.561
       747  58.4724291 -38.2171250   1867.3962    943.9059   2  0.628
       748  58.5922974 -38.2120890   1528.2832    963.0485   0  0.606
       749  58.7694162 -38.2130567   1025.8069    961.0634   0  0.163
       750  58.9698778 -38.2156656    459.1562    950.2973   0  0.212
       751  58.5749610 -38.2170616   1577.2522    945.8506   0  0.083
       752  58.7948708 -38.2136097    955.3734    958.0947   0  0.033
       753  58.6237543 -38.2157434   1438.2256    950.4265   0  0.029
       754  58.5113400 -38.2116612   1756.4432    964.1733   0  0.567
       755  59.0020357 -38.2108845    369.0202    966.8404   2  0.471
       756  58.7043711 -38.2072049   1210.7267    981.2012   0  0.535
       757  58.7860325 -38.2138890    980.0627    957.9825   0  0.183
       758  58.8882114 -38.2177199    690.9910    943.0103   0  0.383
       759  59.0829928 -38.2106977    139.3556    968.2862   0  0.238
       760  58.4186356 -38.1547541   2019.8297   1168.0533   8  0.997
       761  58.7510339 -38.2072218   1080.6409    979.0862   0  0.009
       762  58.6654758 -38.2138434   1320.6921    957.6226   0  0.513
       763  58.9133096 -38.2154700    619.4229    951.0327   0  0.468
       764  58.8751274 -38.2160656    728.3102    948.8251   0  0.466
       765  58.5795878 -38.2054024   1564.3370    987.4485   0  0.142
       766  58.7987567 -38.2058310    944.4294    986.8672   0  0.099
       767  58.8935049 -38.2118812    676.3099    964.4138   0  0.521
       768  59.0168621 -38.2044656    326.9604    989.9305   0  0.029
       769  58.9284964 -38.2082283    576.6650    977.5125   0  0.455
       770  58.5644188 -38.1942658   1608.2745   1025.5037   0  0.274
       771  58.8719342 -38.2080129    736.6241    977.6061   0  0.199
       772  58.4632999 -38.2021015   1893.1265    997.3462   0  0.010
       773  58.8128956 -38.2038823    904.8304    992.7436   0  0.004
       774  58.9822221 -38.2053662    425.0052    987.1957   0  0.301
       775  58.4498554 -38.2048435   1930.6827    986.0300   0  0.016
       776  59.1109147 -38.2092314     60.6353    972.2760   0  0.403
       777  58.6145799 -38.2073983   1464.2531    979.8130   0  0.387
       778  58.9702024 -38.2051094    458.9248    988.2675   0  0.228
       779  59.0292491 -38.2086057    292.2132    975.3062   0  0.449
       780  58.7192174 -38.2086012   1167.2424    975.4509   0  0.507
       781  58.4385979 -38.1928678   1959.0345   1030.7512   0  0.001
       782  58.9143428 -38.2015798    617.5553   1001.7403   0  0.351
       783  58.4950987 -38.2060689   1803.1918    984.4680   0  0.379
       784  58.6453456 -38.2013238   1378.8625   1000.4196   0  0.112
       785  59.0946442 -38.2073328    106.8118    978.9066   0  0.471
       786  58.8440055 -38.2066447    816.6490    983.5378   0  0.483
       787  58.5976214 -38.2032080   1513.3247    994.6998   0  0.121
       788  58.9850271 -38.1975834    417.8844   1013.9792   0  0.045
       789  58.6725626 -38.2019050   1300.4844   1000.4134   0  0.121
       790  59.0313463 -38.2019344    287.4680   1000.1041   0  0.300
       791  58.8977375 -38.2063211    664.2033    983.5978   0  0.353
       792  59.0362809 -38.1980344    271.3151   1012.2796   0  0.230
       793  59.0744838 -38.2048866    164.3784    988.1014   0  0.457
       794  58.9238645 -38.1910122    590.1428   1038.8336   0  0.782
       795  58.7701233 -38.1950011   1024.4835   1024.2988   0  0.360
       796  59.0041042 -38.1944915    362.6519   1026.3629   2  0.371
       797  58.8185497 -38.2013801    887.6445   1002.2419   0  0.254
       798  59.0472519 -38.2016203    240.4986   1000.0183   0  0.485
       799  58.8284414 -38.1941534    859.6487   1027.7087   0  0.510
       800  59.0963757 -38.1992725    101.2000   1007.9885   0  0.590
       801  58.9115074 -38.1976943    624.9023   1015.3146   0  0.218
       802  58.9938662 -38.1984003    392.1965   1012.2237   0  0.718
       803  59.0627961 -38.1993605    197.1175   1007.7360   0  0.646
       804  58.8860565 -38.1966110    699.2757   1020.9938   0  0.002
       805  58.6301476 -38.2004734   1421.5067   1004.5045   2  0.468
       806  58.5212882 -38.1972382   1728.6636   1015.4390   0  0.634
       807  58.6082353 -38.1990564   1482.6476   1009.6315   0  0.532
       808  58.7351300 -38.1991625   1124.4407   1010.5478   0  0.268
       809  58.4326242 -38.1853508   1980.2820   1057.7281   0  0.850
       810  58.4771115 -38.1957477   1854.0907   1020.9155   0  0.145
       811  58.4269423 -38.1911678   1995.5436   1036.7821   0  0.142
       812  59.0751606 -38.1976625    161.3560   1013.8835   0  0.501
       813  58.7050853 -38.1991497   1208.4507   1009.8493   0  0.430
       814  59.0323798 -38.1944320    283.8186   1025.2129   0  0.282
       815  58.4757370 -38.1860220   1858.1061   1059.2520   2  0.018
       816  59.0040944 -38.1914360    363.4463   1037.0243   2  0.086
       817  58.4703970 -38.1954530   1873.1787   1022.0224   0  0.214
       818  58.6789340 -38.1949657   1283.2285   1024.7198   0  0.569
       819  58.4219810 -38.1939310   2009.3966   1027.1414   0  0.316
       820  59.0952719 -38.1895532    105.6074   1043.5338   0  0.036
       821  59.0891810 -38.1706809    121.5903   1111.6044   0  0.134
       822  59.1210998 -38.1953126     32.0035   1021.9970   0  0.362
       823  59.0224698 -38.1905648    310.6309   1039.9432   0  0.695
       824  58.8545807 -38.1808043    785.8698   1075.8997   0  0.253
       825  59.1292237 -38.1941770      8.5046   1026.0016   0  0.361
       826  58.6436023 -38.1874330   1382.3368   1052.0153   0  0.242
       827  59.0899828 -38.1923455    119.9333   1033.2621   0  0.448
       828  58.4866871 -38.1874377   1826.8363   1051.6693   0  0.068
       829  58.7199398 -38.1863792   1166.8179   1056.3497   0  0.216
       830  58.8680240 -38.1919051    747.8837   1035.6725   0  0.349
       831  58.7573998 -38.1913893   1061.2788   1038.0537   0  0.522
       832  58.5400470 -38.1892207   1676.0714   1044.4841   0  0.526
       833  59.0351568 -38.1805369    274.0137   1076.2378   2  0.056
       834  58.8962124 -37.9368772    666.4421   1954.5958   2  0.461
       835  58.4426761 -37.9139875   1954.4648   2034.3204   8  1.000
       836  58.7553364 -37.9124990   1066.9150   2041.5270   8  0.883
       837  59.0859670 -37.9173536    128.2455   2023.0925   8  0.985
       838  58.9961618 -37.9120050    382.5698   2043.2677   0  0.046
       839  58.7359715 -37.9127727   1121.5394   2040.7051   0  0.186
       840  58.4616927 -37.9132056   1900.2924   2037.8693   0  0.211
       841  58.6423155 -37.9132636   1388.3617   2039.4431   0  0.497
       842  59.1169343 -37.9133773     40.0703   2036.9260   2  0.560
       843  59.1148309 -37.9153280     45.2017   2030.0010   2  0.541
       844  58.9395083 -37.9259894    543.5478   1993.3015   0  0.007
       845  59.0412807 -37.9260765    254.8387   1992.5450   0  0.482
       846  58.9800397 -37.9378686    429.2737   1950.3405   2  0.806
       847  58.9715928 -37.9401056    451.8205   1942.1187   2  0.026
       848  59.1293606 -37.9344515      5.1667   1961.6860   0  0.525
       849  58.9617198 -37.9359554    481.1671   1956.9244   0  0.211
       850  58.5986033 -37.9359859   1510.1233   1957.4248   0  0.062
       851  58.8342272 -37.9397051    843.1170   1944.1538   0  0.041
       852  59.1223314 -37.9375284     24.6159   1950.0275   0  0.509
       853  58.8845914 -37.9380002    700.9135   1949.5883   0  0.488
       854  59.0578797 -37.9382594    207.2972   1947.2740   0  0.577
       855  59.0768967 -37.9376557    153.7395   1950.0690   0  0.492
       856  59.1043764 -37.9392475     75.9145   1943.9550   0  0.187
       857  59.1163478 -37.9383795     41.5416   1947.1045   0  0.525
       858  58.5697056 -37.9423291   1593.8903   1934.4178   0  0.064
       859  59.0163338 -37.9427983    325.9266   1931.5787   0  0.896
       860  59.0001276 -37.9417199    371.8663   1935.8026   0  0.385
       861  58.7553299 -37.9444438   1067.0814   1927.2762   0  0.470
       862  59.1290572 -37.9444526      6.0957   1925.3751   0  0.562
       863  58.8011248 -37.9538852    936.5493   1892.4530   0  0.030
       864  59.0050934 -37.9525436    357.9312   1897.2936   0  0.483
       865  59.0434917 -37.9524606    249.5732   1897.1052   0  0.460
       866  58.9184341 -37.9532404    603.8002   1894.6615   0  0.470
       867  58.8603384 -37.9782994    765.8988   1802.7980   0  0.977
       868  59.0756206 -37.9696040    157.6439   1834.4780   0  0.497
       869  59.1291807 -37.9697304      6.1550   1834.1731   0  0.352
       870  59.1112412 -37.9764506     57.1091   1809.5988   0  0.486
       871  59.0878859 -37.9540157    122.5206   1891.0294   0  0.501
       872  58.9896969 -37.9872959    401.9013   1771.9359   0  0.049
       873  58.6929383 -37.9874752   1243.4740   1772.1758   0  0.462
       874  58.9576238 -37.9870736    492.8961   1772.8975   0  0.493
       875  58.5153013 -37.9886130   1747.8600   1766.4658   0  0.491
       876  58.9326046 -37.9890553    563.7523   1766.0480   0  0.481
       877  58.4941459 -37.9907875   1808.3730   1759.0961   0  0.079
       878  58.6400662 -37.9904841   1393.9218   1761.0291   0  0.572
       879  58.7042136 -37.9908154   1211.5625   1760.3623   0  0.459
       880  58.6069189 -37.9976650   1487.6270   1735.4265   2  0.983
       881  58.4496944 -38.0001192   1934.5161   1724.6339   0  0.448
       882  58.5254835 -38.0003014   1720.0172   1724.2518   0  0.529
       883  58.7524981 -38.0016661   1074.9656   1721.0479   0  0.137
       884  58.5325300 -38.0014270   1698.9924   1720.8936   0  0.041
       885  58.8014933 -37.9919410    936.0856   1756.1854   0  0.072
       886  59.0376932 -38.0046968    265.7703   1709.5619   0  0.763
       887  58.8191236 -38.0024906    886.0572   1717.8687   0  0.491
       888  58.8653044 -38.0032957    754.7468   1714.8256   0  0.396
       889  58.6534583 -37.9913315   1356.2588   1757.8741   0  0.430
       890  58.9626053 -38.0051213    480.1951   1707.7350   0  0.744
       891  59.0570844 -38.0052066    211.8341   1707.7172   0  0.616
       892  58.7676560 -38.0058341   1032.2533   1706.5748   0  0.416
       893  59.0951639 -38.0064965    102.1602   1703.6904   0  0.403
       894  58.9146634 -38.0063010    615.5449   1703.7963   0  0.012
       895  58.4433245 -38.0056573   1951.7916   1704.3965   0  0.596
       896  58.6382759 -38.0060378   1398.7112   1705.5938   0  0.445
       897  58.5688220 -38.0076060   1595.8799   1698.4038   0  0.690
       898  59.0299533 -38.0091586    289.2078   1693.0741   0  0.481
       899  58.8864658 -38.0096656    695.2949   1691.4426   0  0.499
       900  58.9065644 -38.0113107    638.5490   1686.0177   0  0.192
       901  58.4831347 -38.0124280   1840.7234   1681.0375   0  0.164
       902  58.7775277 -38.0133339   1003.1881   1679.0831   0  0.013
       903  58.8099646 -38.0144386    913.1463   1674.3214   0  0.015
       904  58.5416590 -38.0131119   1673.0869   1678.8729   0  0.461
       905  58.6840972 -38.0130248   1268.8447   1680.1438   0  0.499
       906  59.0130456 -38.0136392    339.7044   1677.7666   0  0.016
       907  58.9763805 -38.0145425    439.5099   1673.2578   0  0.509
       908  58.8332348 -38.0147062    845.5282   1674.0131   0  0.450
       909  59.0599409 -38.0143664    203.5010   1674.4983   0  0.357
       910  58.6333227 -38.0154766   1413.0566   1671.0006   0  0.480
       911  59.1082462 -38.0147931     65.9836   1672.1750   0  0.374
       912  59.0435595 -38.0652393    249.4604   1491.1289   2  0.454
       913  58.5757194 -38.0653957   1576.2440   1490.5502   0  0.268
       914  59.1264640 -38.0633510     15.1085   1496.8846   0  0.376
       915  58.9772230 -38.0631524    437.6885   1499.2411   0  0.416
       916  59.0950749 -38.0659418    103.4215   1488.0466   0  0.193
       917  58.7941158 -38.0669430    957.4991   1485.5398   0  0.101
       918  58.4303356 -38.0697878   1987.9594   1474.1731   2  0.059
       919  59.0622667 -38.0671389    197.5473   1484.7097   0  0.468
       920  59.0576799 -38.0671502    210.4928   1484.4971   0  0.367
       921  58.9779625 -38.0750956    434.9303   1456.5269   2  0.004
       922  58.9267950 -38.0743414    581.3034   1459.0699   0  0.621
       923  58.6833105 -38.0816356   1270.4960   1432.3921   0  0.569
       924  58.4708659 -38.0812869   1873.1722   1432.8169   0  0.594
       925  58.5086230 -38.0822102   1766.0818   1430.4863   0  0.495
       926  59.1106871 -38.0847867     59.5308   1420.1654   0  0.016
       927  58.6702141 -38.1102363   1307.5803   1330.2144   0  0.004
       928  58.6243149 -38.1124106   1438.2302   1322.4167   0  0.558
       929  58.6052479 -38.1134965   1492.0629   1317.6422   0  0.400
       930  58.9643032 -38.1137302    475.0938   1316.5294   0  0.035
       931  58.7821272 -38.1133338    990.4044   1318.3396   0  0.344
       932  59.0804531 -38.1123705    145.5007   1321.0035   0  0.348
       933  58.9064096 -38.1177002    638.3551   1304.2185   0  0.030
       934  59.0239692 -38.1136168    304.7375   1313.7468   0  0.261
       935  58.6482591 -37.9385480   1371.0748   1947.8982   0  0.577
       936  58.7187055 -37.9324889   1170.1348   1970.2164   0  0.027
       937  59.0628161 -37.9396361    194.0296   1943.5265   0  0.497
       938  59.0906545 -37.9426191    114.5503   1931.8230   0  0.341
       939  58.7042551 -37.9447040   1213.6377   1925.8383   2  0.171
       940  58.4591176 -37.9393104   1907.9878   1944.0094   0  0.472
       941  58.5376713 -37.9364366   1685.1803   1955.1864   0  0.060
       942  58.5446991 -37.9417281   1664.7540   1936.6237   0  0.471
       943  59.0540064 -37.9385466    218.6592   1946.9918   0  0.415
       944  58.7824514 -37.9391663    989.8744   1945.3978   0  0.382
       945  58.9367389 -37.9471047    551.9405   1916.5144   0  0.664
       946  59.1061806 -37.9486870     71.1284   1909.6750   0  0.463
       947  58.5083861 -37.9510974   1768.3772   1901.9922   0  0.125
       948  58.6552890 -37.9477218   1351.0000   1915.0000   0  0.350
       949  59.0977066 -37.9442664     94.5071   1925.2742   0  0.041
       950  59.0705819 -37.9437833    172.5572   1928.1083   0  0.638
       951  58.5218138 -37.9389041   1729.7172   1946.1588   0  0.025
       952  58.5038398 -37.9419204   1780.7321   1933.8884   0  0.489
       953  58.6426247 -37.9379864   1387.0015   1949.4392   0  0.526
       954  58.8662839 -37.9435722    751.8839   1930.5226   0  0.873
       955  58.9628135 -37.9501204    478.4126   1905.6995   0  0.035
       956  58.9965960 -37.9386712    382.0010   1946.9974   0  0.429
       957  58.8824841 -37.9418912    706.3389   1936.3129   0  0.205
       958  58.5510143 -37.9500735   1646.2993   1906.7102   0  0.013
       959  58.4185796 -37.9461406   2022.6493   1919.0720   0  0.011
       960  59.0688049 -37.9398988    176.5256   1941.8291   0  0.605
       961  58.5996309 -37.9484875   1509.4967   1912.0419   0  0.454
       962  58.4981734 -37.9502408   1796.7230   1904.7072   0  0.617
       963  58.4566082 -37.9495816   1913.9897   1907.1377   0  0.245
       964  58.9018625 -37.9452044    651.5022   1925.4447   0  0.408
       965  58.5661532 -37.9531564   1603.8087   1894.4464   0  0.061
       966  58.7225609 -37.9611019   1154.2949   1864.2970   0  0.355
       967  58.6345070 -37.9471441   1410.2665   1916.8676   0  0.078
       968  58.6802929 -37.9527437   1280.6600   1897.3336   0  0.361
       969  58.8550169 -37.9474698    784.0706   1917.9894   0  0.258
       970  58.7243292 -37.9502691   1154.9412   1906.2277   0  0.508
       971  58.6341460 -37.9518659   1410.1652   1899.4579   0  0.011
       972  58.5915289 -37.9484755   1533.9434   1913.0602   0  0.111
       973  58.5425530 -37.9522797   1670.5817   1897.9497   0  0.584
       974  58.4118571 -37.9522315   2041.0198   1895.9390   0  0.145
       975  58.9811361 -37.9517557    425.6851   1898.9153   0  0.536
       976  58.4206455 -37.9561469   2016.8097   1881.7706   0  0.047
       977  58.5792006 -37.9481783   1567.2670   1913.1528   0  0.064
       978  58.4710352 -37.9535082   1873.5126   1893.0104   0  0.439
       979  58.7983081 -37.9580526    943.7788   1877.9703   0  0.113
       980  58.6718330 -37.9566258   1303.9454   1882.8876   0  0.480
       981  58.6799375 -37.9552434   1281.4711   1888.0038   0  0.464
       982  59.0625434 -37.9596371    195.0194   1869.6254   0  0.435
       983  58.4322943 -37.9511809   1983.6849   1900.3014   0  0.193
       984  59.0656997 -37.9560180    185.7486   1884.4233   0  0.477
       985  58.6556178 -37.9627223   1350.3595   1861.4752   0  0.547
       986  58.7327795 -37.9583278   1130.3805   1876.8595   0  0.500
       987  59.0723933 -37.9560010    166.7263   1883.5352   0  0.431
       988  58.5742520 -37.9545591   1581.6176   1888.7825   0  0.378
       989  58.4512869 -37.9581786   1929.4225   1876.0620   0  0.486
       990  58.7683618 -37.9777783   1030.4683   1807.3633   0  0.107
       991  59.1090487 -37.9595122     62.5035   1871.4967   0  0.364
       992  58.5178812 -37.9558404   1741.4998   1885.1461   0  0.016
       993  59.0290630 -37.9566600    290.7048   1881.7212   0  0.416
       994  58.4812142 -37.9629783   1845.2167   1859.8174   2  0.504
       995  59.0921267 -37.9570598    110.4873   1880.3994   0  0.546
       996  58.5375701 -37.9683812   1685.6621   1840.7852   0  0.493
       997  58.5150185 -37.9686122   1748.9465   1839.8579   0  0.245
       998  58.4266268 -37.9578312   1999.8547   1877.4501   0  0.602
       999  58.8941394 -37.9607685    673.2095   1867.9783   2  0.013
      1000  58.5516477 -37.9739639   1644.7408   1820.3013   0  0.024
      1001  58.9804721 -37.9659237    428.0030   1848.4991   0  0.353
      1002  58.9935341 -37.9742330    390.5317   1817.4406   0  0.057
      1003  58.4635630 -37.9712670   1894.7394   1829.0402   2  0.014
      1004  58.5520397 -37.9606311   1644.0612   1867.6134   0  0.026
      1005  58.6531378 -37.9713310   1356.5172   1829.6450   0  0.059
      1006  59.1016626 -37.9623111     83.5039   1860.5038   0  0.412
      1007  59.0242115 -37.9800042    304.2059   1797.9641   0  0.546
      1008  58.5002737 -37.9538568   1788.7826   1892.0118   0  0.526
      1009  58.5420548 -37.9992236   1671.7155   1729.2384   0  0.519
      1010  58.8219193 -37.9677670    877.2399   1843.2838   0  0.483
      1011  58.8888560 -37.9616073    687.2180   1866.0750   2  0.128
      1012  59.0481365 -37.9696722    236.2422   1835.1633   0  0.391
      1013  58.5636239 -37.9756522   1611.1298   1814.2515   0  0.861
      1014  58.6520731 -37.9760522   1359.8232   1811.8406   0  0.017
      1015  59.0389599 -37.9655268    262.1234   1850.8971   0  0.519
      1016  58.4780411 -37.9635260   1852.9966   1856.4733   2  0.248
      1017  58.6968422 -37.9605330   1232.9061   1869.2615   0  0.483
      1018  58.9202256 -37.9679604    599.4927   1842.4954   0  0.419
      1019  58.5259257 -37.9733576   1717.7117   1821.5697   0  0.414
      1020  58.5369077 -37.9550464   1687.3005   1888.0431   0  0.461
      1021  58.9392647 -37.9732124    544.6040   1822.5857   0  0.414
      1022  58.7570881 -37.9608330   1063.0314   1868.3698   0  0.437
      1023  59.0157388 -37.9755777    328.0035   1813.5070   0  0.449
      1024  59.0308777 -37.9716561    285.5478   1828.3109   0  0.027
      1025  58.6545542 -37.9668880   1352.7798   1846.4913   0  0.009
      1026  58.8166395 -37.9763803    892.8494   1812.2416   0  0.470
      1027  58.4202535 -37.9644792   2017.9440   1853.2426   0  0.503
      1028  58.9853870 -37.9598036    413.6426   1871.2175   0  0.577
      1029  58.4297434 -37.9695072   1991.6404   1834.3549   2  0.068
      1030  59.0569531 -37.9715954    208.5490   1826.9741   0  0.123
      1031  58.6196691 -37.9682373   1452.3262   1840.7640   0  0.484
      1032  58.5720768 -37.9773335   1586.0798   1807.2211   0  0.148
      1033  58.6266966 -37.9782462   1431.5028   1805.4948   0  0.355
      1034  58.9815699 -37.9800885    425.1306   1797.9934   0  0.458
      1035  58.4491305 -37.9678950   1936.4896   1841.0021   0  0.459
      1036  58.8942191 -38.0079910    672.4611   1698.4648   0  0.545
      1037  58.9868454 -37.9764678    409.9030   1811.3190   0  0.405
      1038  58.4653122 -37.9743271   1890.1667   1818.5978   2  0.037
      1039  58.4286669 -37.9736708   1993.1002   1818.1611   2  0.009
      1040  58.4765484 -37.9843559   1858.3571   1782.6108   0  0.772
      1041  58.9523109 -37.9765263    508.0332   1811.0231   0  0.785
      1042  58.6073189 -37.9762765   1486.5403   1812.1201   0  0.054
      1043  58.5043633 -37.9919221   1779.5588   1755.2852   2  0.025
      1044  58.9643114 -37.9837294    473.3784   1784.7654   0  0.428
      1045  58.6933013 -37.9774754   1242.8668   1808.8275   0  0.580
      1046  58.4181062 -37.9714173   2023.5259   1828.4889   0  0.505
      1047  58.4804570 -37.9763099   1846.0128   1810.0000   0  0.005
      1048  58.9290602 -37.9798934    574.0105   1799.0057   0  0.445
      1049  59.0890537 -37.9795684    119.5549   1798.7004   0  0.736
      1050  58.5522889 -37.9953541   1643.5952   1743.0627   0  0.085
      1051  58.9508631 -37.9609729    511.8630   1867.2955   0  0.482
      1052  59.1176303 -37.9861542     39.2886   1774.6727   0  0.039
      1053  58.9727727 -37.9848263    450.4975   1781.5010   0  0.444
      1054  58.5386052 -37.9753278   1681.9949   1814.9889   0  0.505
      1055  59.0199864 -37.9811243    315.4959   1794.1990   0  0.553
      1056  58.9583037 -37.9773502    491.4615   1808.4960   0  0.513
      1057  58.9237729 -37.9793449    589.0053   1800.9921   0  0.429
      1058  58.5780573 -37.9812323   1569.7858   1794.4639   0  0.532
      1059  58.5054387 -37.9869245   1775.4785   1772.5974   2  0.645
      1060  58.6196469 -37.9790707   1451.8452   1802.1447   0  0.544
      1061  58.9417735 -37.9912645    537.5419   1757.5693   0  0.037
      1062  58.7641323 -37.9869449   1041.3473   1773.9053   0  0.266
      1063  58.8152218 -37.9630474    899.0415   1860.3350   2  0.024
      1064  59.0495153 -37.9616132    232.3302   1862.3440   2  0.547
      1065  58.9914985 -38.0003482    396.2399   1725.2095   0  0.626
      1066  58.9538616 -38.0329132    504.2378   1608.1580   0  0.484
      1067  59.0697483 -37.9985083    176.2848   1730.4584   0  0.070
      1068  59.0665377 -37.9890719    184.4971   1764.4999   0  0.362
      1069  59.0143191 -37.9725250    331.5930   1824.7538   0  0.465
      1070  58.8138307 -37.9938815    901.4086   1749.0747   0  0.517
      1071  58.4300262 -37.9845082   1990.2483   1780.1589   0  0.564
      1072  59.0164837 -37.9875207    326.0042   1771.4974   0  0.460
      1073  58.9456148 -37.9762587    527.2949   1811.6643   0  0.025
      1074  58.7359406 -37.9788845   1122.5330   1803.1691   0  0.413
      1075  59.0179131 -37.9933511    321.0225   1749.4994   0  0.474
      1076  58.8416985 -38.0166458    822.6037   1666.3936   2  0.106
      1077  58.7535594 -37.9852772   1071.9919   1780.4788   0  0.509
      1078  58.5907048 -37.9973636   1529.6317   1738.7368   2  0.013
      1079  58.4613716 -37.9895948   1900.6454   1762.9082   0  0.467
      1080  59.0320121 -37.9933205    282.0312   1749.2831   0  0.026
      1081  58.6340656 -37.9951996   1410.9055   1743.6631   0  0.271
      1082  58.4948143 -38.0005114   1805.6740   1723.7693   0  0.020
      1083  59.0154588 -37.9972451    329.3620   1735.6273   0  0.387
      1084  58.5893154 -37.9890280   1537.4031   1765.7251   0  0.011
      1085  58.5438284 -37.9956159   1666.8611   1742.3054   0  0.024
      1086  58.5318521 -37.9930922   1700.8676   1750.9531   0  0.615
      1087  58.9967673 -37.9942270    382.3751   1747.0850   0  0.468
      1088  58.4395168 -37.9900909   1962.8455   1761.2565   0  0.032
      1089  58.4899015 -37.9946664   1820.1013   1745.1090   0  0.385
      1090  59.0069882 -37.9939291    352.2723   1747.6426   0  0.427
      1091  58.4497090 -37.9967859   1934.0323   1737.4865   0  0.286
      1092  59.0246130 -37.9941701    302.1655   1745.2002   0  0.259
      1093  58.9139398 -37.9968574    616.9839   1737.7629   2  0.368
      1094  59.0868614 -37.9615186    125.8895   1863.6794   0  0.532
      1095  58.5279354 -38.0050288   1710.1881   1709.7753   0  0.003
      1096  58.4362967 -38.0006375   1972.1180   1722.5385   0  0.367
      1097  58.7683612 -37.9991674   1029.5494   1729.6635   0  0.487
      1098  58.9343942 -38.0012751    559.5165   1721.4238   0  0.010
      1099  58.5382923 -37.9628270   1682.8513   1860.6288   0  0.509
      1100  58.4849365 -38.0024323   1834.5181   1717.3582   0  0.060
      1101  59.0045378 -37.9992119    358.2586   1728.4884   0  0.164
      1102  59.0655072 -37.9957412    188.6947   1742.6615   0  0.165
      1103  58.6936290 -38.0010869   1242.4209   1722.7809   0  0.532
      1104  58.9167603 -37.9971317    608.5552   1736.6082   2  0.252
      1105  59.0798442 -37.9684818    146.1896   1839.0278   0  0.484
      1106  58.8370954 -37.9952595    835.5186   1744.0189   0  0.284
      1107  59.0612828 -37.9971407    199.1178   1736.2721   0  0.366
      1108  58.8554752 -38.0388590    782.9989   1586.7781   0  0.584
      1109  58.9491963 -37.9998646    516.6983   1726.4587   0  0.534
      1110  58.6404053 -37.9979845   1393.2826   1734.2286   0  0.499
      1111  58.4669569 -38.0026650   1884.4503   1716.3583   0  0.497
      1112  58.4268322 -37.9892212   1999.0358   1763.4673   0  0.095
      1113  58.7207695 -38.0052681   1165.2517   1707.3398   0  0.457
      1114  58.9093543 -37.9951963    629.2802   1743.6157   0  0.691
      1115  58.6929166 -38.0080309   1243.7855   1696.9961   0  0.037
      1116  58.8230049 -38.0074890    874.6284   1699.8783   0  0.483
      1117  58.7718861 -37.9916673   1019.8217   1756.8287   0  0.229
      1118  58.7242892 -38.0141585   1155.4135   1676.1812   0  0.238
      1119  58.7063145 -38.0066500   1205.7407   1702.7469   2  0.502
      1120  58.5765523 -38.0173412   1574.2816   1664.6329   0  0.480
      1121  58.9798777 -38.0045362    429.9053   1710.3376   0  0.198
      1122  58.8561610 -38.0221917    781.5389   1646.8911   0  0.496
      1123  58.4785403 -38.0151945   1851.7512   1670.5969   0  0.444
      1124  58.5011503 -38.0030261   1787.7843   1714.9011   0  0.516
      1125  58.7602528 -38.0058337   1054.9061   1705.7642   0  0.479
      1126  58.6781063 -38.0107980   1286.1475   1687.7495   0  0.030
      1127  58.6453232 -38.0079899   1378.1123   1697.6660   0  0.514
      1128  58.9333632 -38.0132211    561.6899   1678.2540   0  0.374
      1129  58.7577833 -38.0163890   1060.4436   1667.2864   0  0.039
      1130  58.7535530 -38.0133329   1071.7799   1685.4998   0  0.000
      1131  58.5205418 -38.0022355   1733.7179   1718.5913   0  0.354
      1132  58.8681335 -38.0099601    747.0320   1691.0352   0  0.557
      1133  58.8892894 -38.0116073    686.8792   1684.8344   0  0.419
      1134  58.5251031 -38.0086341   1720.1847   1694.9791   0  0.201
      1135  58.6879785 -38.0102498   1258.0004   1689.7567   0  0.132
      1136  58.9947162 -38.0150645    387.7198   1671.3622   0  0.472
      1137  59.0260404 -37.9991671    298.3656   1729.0018   0  0.127
      1138  58.5920783 -38.0123658   1529.7336   1681.5233   0  0.508
      1139  59.0207709 -38.0044562    314.0126   1710.0004   0  0.457
      1140  59.1290660 -38.0183425      6.2557   1662.3076   8  0.006
      1141  58.7320435 -38.0186057   1133.1053   1660.8683   0  0.031
      1142  58.8931769 -38.0171589    675.5811   1665.0658   0  0.491
      1143  58.5011013 -38.0163594   1787.8540   1667.0022   0  0.379
      1144  58.8029082 -38.0033296    931.8276   1714.4247   0  0.025
      1145  58.7662457 -38.0088896   1035.7758   1694.4635   0  0.203
      1146  58.7937475 -38.0183318    958.1987   1660.9054   0  0.159
      1147  58.8187814 -38.0180464    886.8210   1662.1787   0  0.403
      1148  58.8885977 -38.0199413    688.7049   1654.5957   0  0.056
      1149  58.4633457 -38.0232114   1894.3148   1641.7046   0  0.848
      1150  58.7704763 -38.0244453   1023.4953   1638.9965   0  0.490
      1151  58.6019080 -38.0307137   1501.5614   1615.0103   2  0.019
      1152  58.6015471 -38.0343243   1503.0040   1603.0444   2  0.150
      1153  58.9090512 -38.0213079    631.4147   1650.7522   0  0.488
      1154  58.9485480 -38.0231991    519.3412   1643.0363   0  0.522
      1155  58.6396682 -38.0160394   1394.3744   1669.8009   0  0.005
      1156  58.8015031 -38.0149967    935.9573   1673.0156   0  0.179
      1157  59.0462344 -38.0260661    241.6099   1631.6350   0  0.487
      1158  58.9764071 -38.0239869    439.1022   1638.8242   0  0.522
      1159  58.9030609 -38.0235370    648.2098   1642.2894   0  0.490
      1160  59.0546986 -38.0263237    218.2172   1631.5504   0  0.386
      1161  58.8727268 -38.0171784    734.1504   1665.7043   0  0.001
      1162  58.7708290 -38.0300009   1023.2493   1619.3751   0  0.140
      1163  58.4249261 -38.0197715   2003.2689   1653.9421   0  0.486
      1164  59.0391828 -38.0263602    262.4125   1631.1788   0  0.570
      1165  58.7990385 -38.0238862    942.4730   1641.1569   2  0.482
      1166  58.6847718 -38.0391365   1266.3615   1586.3756   0  0.999
      1167  58.4555750 -38.0262465   1916.4052   1631.1987   0  0.141
      1168  59.0822099 -38.0276429    140.0662   1626.1873   0  0.190
      1169  58.6202540 -38.0268496   1450.0880   1629.9847   0  0.846
      1170  58.5529024 -38.0261889   1640.5850   1631.4166   0  0.495
      1171  58.4344132 -38.0270213   1976.8810   1628.3246   0  0.488
      1172  58.7948062 -38.0211094    953.3826   1650.2292   2  0.092
      1173  58.7718867 -38.0216675   1020.3460   1649.0925   0  0.479
      1174  58.5994472 -38.0273768   1509.0939   1627.7817   2  0.334
      1175  58.5804113 -38.0248476   1563.3224   1637.4851   0  0.487
      1176  59.0240369 -38.0313939    304.5410   1612.5588   0  0.996
      1177  59.0551787 -38.0591006    216.9704   1513.2805   0  0.465
      1178  58.7814090 -38.0333337    991.6033   1606.5668   0  0.041
      1179  58.6371895 -38.0218700   1401.6174   1647.4830   0  0.099
      1180  59.1111095 -38.0239516     58.0578   1638.3484   0  0.265
      1181  58.9164937 -38.0401879    608.6842   1579.9930   0  0.264
      1182  58.4798934 -38.0296424   1847.5338   1618.9800   0  0.509
      1183  58.8790837 -38.0241172    716.7211   1640.7195   0  0.382
      1184  58.8371210 -38.0233152    833.8181   1641.3683   0  0.067
      1185  58.5553847 -38.0214712   1633.6335   1648.6371   0  0.384
      1186  58.5718497 -38.0612226   1587.7792   1505.9026   0  0.000
      1187  58.7570756 -38.0302779   1062.2576   1617.1812   0  0.121
      1188  58.6086084 -38.0307231   1483.2875   1615.7180   0  0.263
      1189  58.9478488 -38.0257002    520.9926   1633.7615   0  0.496
      1190  58.8064468 -38.0305509    921.6063   1617.3188   0  0.027
      1191  58.9855965 -38.0311928    414.2675   1614.4854   0  0.478
      1192  58.4978692 -38.0321854   1798.0121   1610.0601   2  0.009
      1193  58.7937507 -38.0283319    957.5642   1624.7948   0  0.118
      1194  58.7129938 -38.0308203   1187.3973   1616.3456   0  0.103
      1195  58.8882710 -38.0360529    689.5547   1596.6442   0  0.485
      1196  58.8731074 -38.0371782    734.5005   1592.9128   0  0.506
      1197  58.7464952 -38.0330540   1092.7551   1608.2584   0  0.550
      1198  58.8515881 -38.0321950    793.5718   1611.4362   0  0.046
      1199  58.5088285 -38.0247102   1765.4982   1636.5266   0  0.424
      1200  58.9768036 -38.0395419    438.7377   1584.0903   0  0.543
      1201  58.9270788 -38.0421187    580.9149   1575.4446   0  0.019
      1202  59.1305105 -38.0252827      3.4865   1633.2223   8  0.526
      1203  58.9341298 -38.0407202    560.7355   1579.7462   0  0.148
      1204  58.9838494 -38.0367515    419.9633   1593.9021   0  0.483
      1205  58.9320063 -38.0373898    566.5585   1592.5674   0  0.501
      1206  59.1168553 -38.0458795     40.1448   1562.5840   0  0.189
      1207  58.7962205 -38.0322203    950.5052   1610.7334   0  0.487
      1208  59.1095098 -38.0592343     64.6391   1511.8695   0  0.171
      1209  58.4530572 -38.0376287   1923.5575   1589.9023   0  0.671
      1210  58.5867279 -38.0370799   1545.1294   1593.6721   0  0.093
      1211  59.0103807 -38.0611450    344.0991   1505.6368   0  0.411
      1212  59.1238468 -38.0328030     22.0879   1606.6602   0  0.484
      1213  58.5204130 -38.0400133   1733.2592   1581.8324   0  0.171
      1214  58.7926956 -38.0377766    962.3030   1591.4281   0  0.099
      1215  58.4950343 -38.0357900   1804.7249   1597.1958   2  0.087
      1216  58.6748138 -38.1024624   1294.6334   1358.2394   0  0.041
      1217  58.5860135 -38.0406899   1547.6577   1579.5602   0  0.220
      1218  59.0022056 -38.0419946    366.9671   1577.7795   0  0.548
      1219  59.1182424 -38.0408753     37.9617   1578.9254   0  0.230
      1220  58.9888002 -38.0411869    404.4346   1577.2996   0  0.385
      1221  58.5295448 -38.0516991   1707.4216   1540.1228   0  0.504
      1222  59.0307749 -38.0419348    287.1568   1576.1512   0  0.155
      1223  58.6255204 -38.0385229   1434.6216   1587.6245   0  0.388
      1224  58.5302648 -38.0472561   1705.2028   1555.9170   0  0.512
      1225  58.4621453 -38.0570975   1898.2201   1520.2594   0  0.167
      1226  59.0988500 -38.0423200     93.6284   1571.8333   0  0.055
      1227  58.4586447 -38.0506993   1907.9136   1542.8610   0  0.042
      1228  58.6572549 -38.0435577   1343.3767   1570.8142   0  0.012
      1229  59.0491115 -38.0407817    233.6022   1578.9363   0  0.011
      1230  58.5813882 -38.0562382   1559.8973   1523.6006   0  0.041
      1231  58.8417223 -38.0410904    821.9458   1578.7924   0  0.850
      1232  59.1302371 -38.0413948      3.8312   1576.3068   8  0.643
      1233  58.8530104 -38.0424719    790.2649   1574.7803   0  0.031
      1234  58.4650347 -38.0409938   1890.4998   1578.4948   0  0.368
      1235  59.0735066 -38.0548881    165.2650   1528.2701   2  0.277
      1236  58.8988573 -38.0393751    659.6102   1584.4456   0  0.351
      1237  59.1034567 -38.0470293     80.3918   1555.2891   0  0.012
      1238  58.6064584 -38.0459980   1488.8632   1561.2031   0  0.177
      1239  59.1136599 -38.0414443     50.8364   1575.4716   0  0.483
      1240  58.5440335 -38.0433945   1666.1783   1569.8964   0  0.197
      1241  58.8935972 -38.0574364    675.7498   1520.1428   0  0.421
      1242  58.8576145 -38.0583019    776.5059   1516.5032   0  0.348
      1243  58.4336007 -38.0503526   1979.1620   1543.9550   0  0.225
      1244  58.6452602 -38.0449345   1378.5745   1565.0334   0  0.220
      1245  58.4194894 -38.0505891   2018.9152   1542.6210   0  0.040
      1246  58.4752486 -38.0446310   1860.7238   1564.4672   0  0.027
      1247  59.0477228 -38.0466183    237.6753   1558.0682   0  0.186
      1248  58.7510758 -38.0483327   1079.5138   1553.1296   0  0.453
      1249  59.0523425 -38.0554963    225.0131   1526.1852   0  0.402
      1250  58.9532215 -38.0590255    506.1829   1514.3944   0  0.362
      1251  58.8279715 -38.0469313    861.4968   1557.4996   0  0.362
      1252  58.4424903 -38.0345442   1953.3430   1601.9445   0  0.051
      1253  58.5641124 -38.0525981   1608.7937   1536.8639   0  0.524
      1254  58.4258245 -38.0536634   2001.1722   1531.8755   0  0.536
      1255  58.5140323 -38.0491663   1750.7435   1549.7666   0  0.273
      1256  58.9613110 -38.0495681    483.7029   1547.9368   0  0.269
      1257  59.0759841 -38.0568262    158.2164   1521.0469   2  0.563
      1258  58.7327310 -38.0530505   1130.9973   1536.0122   0  0.353
      1259  58.4271704 -38.0675564   1996.5990   1481.4780   2  0.144
      1260  58.7316758 -38.0472168   1134.2986   1557.1350   0  0.283
      1261  58.7623622 -38.0591674   1046.5629   1514.1240   0  0.601
      1262  58.7172055 -38.0586001   1175.0078   1516.4983   0  0.372
      1263  59.0191639 -38.0502933    320.5449   1544.0585   0  0.047
      1264  59.0350255 -38.0469254    274.4095   1557.2200   0  0.426
      1265  58.6173714 -38.0562905   1457.3662   1522.6860   0  0.614
      1266  58.7602472 -38.0466672   1053.6635   1558.6689   0  0.347
      1267  58.6709946 -38.0555146   1306.1979   1526.3280   0  0.726
      1268  58.9281657 -38.0554506    577.7166   1526.9963   0  0.439
      1269  58.9843166 -38.0759176    418.5999   1453.6100   2  0.017
      1270  59.0770273 -38.0532123    154.7676   1532.8420   2  0.160
      1271  58.9901893 -38.0339621    400.9355   1603.1028   0  0.059
      1272  58.5186008 -38.0541762   1737.9569   1530.3595   0  0.502
      1273  58.5443227 -38.0639507   1664.2781   1495.7349   0  0.032
      1274  58.4341888 -38.0759100   1977.5963   1451.3390   0  0.362
      1275  58.9980318 -38.0608918    379.8271   1507.7690   0  0.294
      1276  58.7076777 -38.0616510   1202.0526   1505.0835   0  0.514
      1277  58.4465946 -38.0634447   1942.2614   1497.2185   0  0.531
      1278  58.7715348 -38.0594454   1020.9790   1512.2209   0  0.100
      1279  58.5905502 -38.0604193   1534.2090   1509.0538   0  0.532
      1280  58.6374696 -38.0618705   1400.6628   1503.6619   0  0.369
      1281  59.1189928 -38.0503176     35.0808   1543.4817   0  0.264
      1282  58.4554173 -38.0629131   1916.5924   1498.3157   0  0.055
      1283  59.0450208 -38.0785693    245.9351   1442.3951   2  0.799
      1284  59.0477902 -38.0643961    237.8114   1494.2885   2  0.235
      1285  58.5132166 -38.0805536   1752.8269   1436.0667   0  0.576
      1286  58.6670882 -38.0738447   1317.4420   1462.8441   2  0.095
      1287  58.6106487 -38.0654483   1477.9484   1491.2433   0  0.014
      1288  58.6850932 -38.0660813   1265.1952   1489.3453   0  0.598
      1289  58.5323334 -38.0619826   1699.1515   1503.2269   0  0.489
      1290  58.5711199 -38.0701103   1588.8219   1473.6740   0  0.032
      1291  58.8960982 -38.0757671    668.5153   1454.2706   0  0.597
      1292  58.4391126 -38.0795351   1962.7690   1439.3921   0  0.508
      1293  58.6685047 -38.0702348   1314.2383   1473.7847   2  0.573
      1294  59.0664894 -38.0643505    184.6369   1494.0894   0  0.387
      1295  58.4913848 -38.0680039   1814.6080   1478.8972   0  0.001
      1296  58.5407798 -38.0686661   1675.0946   1479.3381   0  0.469
      1297  58.4885225 -38.0782749   1822.5255   1443.2593   0  0.049
      1298  58.7912963 -38.0777769    963.9242   1446.6918   0  0.023
      1299  58.9059549 -38.0629784    640.1949   1499.1322   0  0.015
      1300  58.8089356 -38.0688836    914.8015   1478.5981   0  0.375
      1301  58.8103493 -38.0730498    911.1689   1464.1683   0  0.359
      1302  58.8346964 -38.0730390    841.4056   1463.7966   0  0.357
      1303  58.6303832 -38.0776956   1421.7295   1447.8713   0  0.317
      1304  58.5135958 -38.0730544   1748.9678   1464.5554   0  0.002
      1305  58.6607234 -38.0827278   1334.3967   1428.7621   0  0.183
      1306  59.0926284 -38.0712263    111.0674   1469.6454   0  0.506
      1307  59.0262985 -38.0730560    300.4784   1462.4750   0  0.619
      1308  59.0365597 -38.0808110    269.8109   1434.0649   0  0.022
      1309  58.9547013 -38.0862455    502.4971   1416.1964   0  0.411
      1310  58.9409037 -38.0718218    540.9924   1467.6464   0  0.008
      1311  59.0016196 -38.0797738    368.9926   1439.0168   0  0.466
      1312  58.9617386 -38.0781787    482.1718   1445.1720   0  0.348
      1313  58.5696918 -38.0762190   1592.5845   1451.7518   0  0.019
      1314  58.6730835 -38.0763498   1300.2349   1452.5262   0  0.013
      1315  58.5333288 -38.0814292   1696.5116   1433.3442   0  0.059
      1316  58.4535498 -38.0867972   1921.9718   1412.1383   0  0.276
      1317  58.9645536 -38.0751185    473.9820   1455.9865   0  0.507
      1318  59.0457433 -38.0830121    243.9796   1427.4327   2  0.118
      1319  58.8812794 -38.0768932    709.5955   1448.7358   0  0.257
      1320  58.4969928 -38.0780171   1798.8123   1445.5452   0  0.478
      1321  58.6935388 -38.0871982   1241.8823   1413.4097   0  0.479
      1322  58.9162168 -38.0782439    610.4556   1444.7551   0  0.815
      1323  58.4147146 -38.0894641   2032.0012   1402.6331   8  0.992
      1324  58.9289188 -38.0773942    574.7435   1448.4418   0  0.353
      1325  58.8565905 -38.0874694    780.2135   1412.0524   0  0.168
      1326  58.9321100 -38.0843343    566.4639   1423.8987   0  0.502
      1327  59.0503450 -38.0866124    230.7915   1413.5330   0  0.594
      1328  58.6318037 -38.0729751   1419.1241   1463.6458   0  0.372
      1329  58.8131750 -38.0780488    903.1325   1445.7460   0  0.351
      1330  58.6896612 -38.0830290   1253.0010   1427.9296   0  0.592
      1331  58.7570637 -38.0958336   1061.4036   1382.1946   0  0.009
      1332  58.6257887 -38.0813012   1433.2657   1431.9667   0  0.203
      1333  58.7193042 -38.0844344   1167.8328   1422.7373   2  0.582
      1334  58.6377232 -38.1165931   1399.3260   1306.7725   0  0.473
      1335  58.6331880 -38.0874212   1413.0168   1411.6299   0  0.200
      1336  58.4796718 -38.0854756   1847.3374   1417.7107   0  0.187
      1337  58.4139587 -38.0997396   2033.4969   1366.0797   0  0.651
      1338  58.4344575 -38.0942443   1975.9585   1385.8579   0  0.037
      1339  58.5530746 -38.0870229   1639.5702   1412.9792   0  0.055
      1340  59.0753828 -38.0818279    161.0289   1429.6920   0  0.658
      1341  58.4373140 -38.0870301   1966.9984   1412.5449   2  0.012
      1342  58.5054408 -38.0838698   1775.0696   1423.7261   0  0.507
      1343  58.7253039 -38.0841591   1153.1616   1423.2495   2  0.156
      1344  58.5681989 -38.1056610   1597.0996   1345.6899   0  0.698
      1345  58.7012971 -38.0935919   1219.9994   1390.1240   0  0.354
      1346  58.9847085 -38.0892503    413.3170   1403.2192   0  0.009
      1347  59.0108248 -38.0889220    342.7401   1405.7463   0  0.485
      1348  58.6977706 -38.0905343   1230.1788   1401.5820   0  0.222
      1349  58.5922107 -38.1029220   1528.6055   1355.9785   0  0.069
      1350  58.9744618 -38.0851018    445.8315   1420.1584   0  0.181
      1351  59.1280927 -38.1077909     10.8228   1337.1000   0  0.418
      1352  58.6497632 -38.0949394   1365.1787   1385.9368   0  0.440
      1353  58.4337797 -38.0881312   1977.6881   1407.8572   2  0.073
      1354  58.7387102 -38.0941635   1113.4135   1388.7532   0  0.254
      1355  58.8078851 -38.0844395    918.1666   1423.6172   0  0.086
      1356  58.8438835 -38.0858114    815.8167   1418.1741   0  0.068
      1357  58.6282314 -38.0954709   1426.4381   1382.0505   0  0.013
      1358  58.4729562 -38.0879589   1866.4751   1409.0649   0  0.427
      1359  59.0623499 -38.0879721    196.6329   1411.1093   0  0.069
      1360  58.4895300 -38.0916107   1819.8640   1396.4556   0  0.408
      1361  58.5417549 -38.0953348   1672.2002   1382.6974   0  0.503
      1362  58.7563594 -38.0875002   1063.9963   1411.3820   0  0.489
      1363  58.8064759 -38.0894399    922.1431   1404.3912   0  0.482
      1364  58.7507127 -38.0869439   1080.2963   1413.4847   0  0.594
      1365  58.6366965 -38.0988142   1401.4977   1370.0065   0  0.179
      1366  58.8114270 -38.1072161    907.2554   1340.7736   0  0.483
      1367  58.4506851 -38.0962339   1930.4390   1379.9475   0  0.420
      1368  59.0751376 -38.1076621    161.3044   1337.5787   0  0.423
      1369  58.9190574 -38.0868515    603.0905   1413.9044   0  0.498
      1370  58.7291700 -38.1124939   1140.9183   1320.8517   0  0.026
      1371  58.4863297 -38.0977142   1827.9253   1376.8689   0  0.481
      1372  58.9180160 -38.0954640    605.5944   1382.7264   0  0.091
      1373  58.8880104 -38.0932755    691.8063   1390.5809   0  0.058
      1374  58.5926008 -38.0876447   1528.1333   1411.1370   0  0.435
      1375  58.9420066 -38.0907092    538.0752   1400.2053   0  0.464
      1376  58.7069287 -38.1116507   1204.3751   1324.7061   0  0.615
      1377  58.4181101 -38.1172523   2022.8142   1302.1558   0  0.313
      1378  58.4463411 -38.1206667   1941.8918   1290.2563   0  0.618
      1379  58.4514068 -38.0926247   1928.5801   1391.9691   0  0.028
      1380  58.6938731 -38.1049763   1240.5059   1348.9988   0  0.461
      1381  58.7796534 -38.0941674    997.6426   1387.6112   2  0.013
      1382  59.0034779 -38.1092147    364.2590   1332.3226   0  0.260
      1383  58.9448348 -38.0926495    529.8577   1393.2904   0  0.487
      1384  58.4580880 -38.0984760   1908.8474   1370.8556   0  0.618
      1385  58.9854618 -38.1053601    413.4918   1345.8940   0  0.005
      1386  58.8438986 -38.1008114    816.1567   1364.1171   0  0.507
      1387  58.6211625 -38.1001844   1447.0541   1365.8644   0  0.071
      1388  58.6088054 -38.1012792   1482.5674   1361.8711   0  0.425
      1389  58.5544494 -38.0995254   1636.9016   1367.7997   0  0.563
      1390  58.6846984 -38.1019144   1267.0513   1359.6783   0  0.510
      1391  59.0309966 -38.1041569    285.6693   1350.6919   0  0.980
      1392  58.7507094 -38.0991661   1079.3361   1369.8351   0  0.137
      1393  58.8707297 -38.1035694    740.0775   1353.6234   0  0.104
      1394  58.5872540 -38.1087477   1544.0497   1333.1604   0  0.049
      1395  58.8061275 -38.0986067    923.0494   1372.0764   0  0.098
      1396  58.9430792 -38.0965410    535.5433   1378.3071   0  0.495
      1397  59.0923991 -38.0992827    112.9685   1367.0781   0  0.052
      1398  58.4492611 -38.0990079   1933.7968   1368.3672   0  0.459
      1399  59.0772173 -38.0984899    155.3730   1371.3221   0  0.053
      1400  58.7754180 -38.0950009   1009.5078   1385.0703   2  0.008
      1401  58.7990690 -38.1013864    943.5721   1361.6620   0  0.516
      1402  58.8587232 -38.0999679    774.4776   1368.2124   0  0.465
      1403  58.6200961 -38.1037942   1450.8387   1352.4329   0  0.370
      1404  58.9254507 -38.1060100    584.2477   1345.0808   0  0.509
      1405  58.7411756 -38.1074975   1107.0603   1339.5542   0  0.028
      1406  58.5971593 -38.1001515   1514.8101   1365.3353   0  0.481
      1407  58.7849497 -38.1038890    982.6521   1352.8661   0  0.531
      1408  58.7115201 -38.1094309   1190.3257   1332.3114   0  0.523
      1409  58.6631664 -38.1013412   1328.2775   1361.9824   0  0.440
      1410  58.9851301 -38.1125829    418.2547   1321.9709   0  0.407
      1411  58.4167476 -38.1069703   2026.1195   1340.0646   0  0.475
      1412  58.6737471 -38.1082948   1298.1248   1337.1097   0  0.584
      1413  58.7500019 -38.1049993   1082.9904   1348.4150   0  0.018
      1414  58.5203050 -38.1747360   1731.8990   1096.8126   2  0.129
      1415  58.5180209 -38.1200087   1739.5741   1294.1500   0  0.481
      1416  59.0401450 -38.0960807    260.0417   1380.5581   0  0.574
      1417  58.9116847 -38.1068606    624.0037   1341.9935   0  0.479
      1418  58.4255325 -38.1156076   2000.7622   1308.4989   0  0.474
      1419  58.7969527 -38.1061092    950.5587   1345.5199   0  0.491
      1420  58.5438392 -38.1061722   1666.4978   1344.4950   0  0.348
      1421  58.6299626 -38.1129730   1422.2244   1318.0314   0  0.010
      1422  58.6942044 -38.1258098   1239.2961   1274.4404   0  0.461
      1423  58.8832005 -38.1782804    705.8756   1084.2255   0  0.030
      1424  58.7524681 -38.1247220   1074.4829   1277.5808   0  0.506
      1425  58.6342075 -38.1085335   1408.9031   1334.6863   0  0.535
      1426  58.9043243 -38.1357582    644.6386   1237.9155   2  0.586
      1427  58.9583191 -38.1206844    491.9579   1291.8907   0  0.497
      1428  58.6539709 -38.1124436   1354.4011   1322.0620   0  0.086
      1429  58.7913063 -38.1124992    967.0871   1322.7433   0  0.043
      1430  59.0617515 -38.1149182    199.0673   1311.4659   0  0.511
      1431  58.6973921 -38.1160896   1230.8408   1309.1173   0  0.066
      1432  58.6493689 -38.1199390   1366.4185   1294.7494   0  0.287
      1433  58.5289922 -38.1122539   1707.5206   1322.4164   0  0.568
      1434  58.6447855 -38.1160453   1380.9071   1309.4789   0  0.010
      1435  58.7789505 -38.1197230    999.7184   1296.2891   0  0.224
      1436  59.0448338 -38.1227367    247.3697   1284.4639   0  0.540
      1437  59.0598745 -38.1757565    205.0807   1093.0024   0  0.342
      1438  59.0331942 -37.9297060    278.3256   1979.3267   0  0.401
      1439  58.7532190 -37.9333323   1072.6025   1966.7716   0  0.438
      1440  59.0338856 -37.9260933    277.1062   1992.0695   0  0.560
      1441  58.4092669 -38.1205589   2045.7925   1292.5862   8  0.883
      1442  59.0390317 -38.1771948    263.2291   1088.3064   2  0.012
      1443  59.1198316 -37.9303135     31.6730   1975.8929   0  0.585
      1444  58.8538084 -38.1235826    787.8831   1282.5231   0  0.266
      1445  59.0956910 -38.1251072    100.4731   1273.0363   2  0.019
      1446  58.5596969 -38.1159239   1620.8903   1309.2429   0  0.064
      1447  58.8888058 -37.9304959    687.9968   1977.0033   0  0.486
      1448  58.8788897 -38.1310622    716.7844   1253.4365   0  0.220
      1449  59.0334787 -37.9108162    277.2897   2046.9839   8  0.450
      1450  59.1083888 -38.1220159     66.9792   1286.8810   0  0.023
      1451  58.7210443 -38.1208241   1164.2217   1292.8799   0  0.067
      1452  58.8262799 -38.1410989    866.0523   1219.0363   0  0.215
      1453  58.8418324 -38.1535905    822.3673   1174.0969   0  0.479
      1454  58.5665617 -37.9328791   1602.1284   1967.3512   0  0.488
      1455  59.1195661 -38.1703169     36.0000   1111.9932   0  0.347
      1456  58.7510585 -38.1141662   1078.5291   1316.1078   0  0.355
      1457  58.9254761 -38.1179544    583.9354   1301.4650   0  0.461
      1458  58.5593310 -38.1203677   1621.8044   1292.6624   0  0.563
      1459  58.9870685 -38.1709129    411.2115   1110.9918   0  0.385
      1460  58.8883997 -38.1157752    691.2505   1310.5428   0  0.057
      1461  59.0670869 -38.1246272    183.7938   1276.9384   0  0.488
      1462  59.0432502 -38.1713517    251.6587   1109.2244   0  0.749
      1463  58.8728751 -38.1230120    734.4337   1283.7443   0  0.533
      1464  58.6115889 -38.1198942   1474.5177   1295.1600   0  0.197
      1465  59.0049320 -38.1222674    360.1752   1285.8304   0  0.348
      1466  58.6656024 -38.1257879   1320.8138   1274.1753   0  0.014
      1467  58.7867198 -38.1261111    977.2201   1273.0396   0  0.011
      1468  58.8817030 -38.1232817    709.4735   1283.4032   0  0.502
      1469  59.0307634 -38.1377687    287.7097   1230.4247   0  0.470
      1470  59.0903944 -38.1251217    117.8213   1275.4279   2  0.023
      1471  58.4410135 -38.1275964   1957.1646   1266.1390   0  0.070
      1472  58.4600702 -38.1304259   1903.6228   1255.6992   0  0.082
      1473  58.4763122 -38.1310231   1857.0216   1254.5835   0  0.013
      1474  59.0515769 -38.1316097    228.1534   1251.9260   0  0.221
      1475  58.6783186 -38.1224652   1284.9990   1286.1984   0  0.453
      1476  58.9869513 -38.1314685    411.1190   1252.7682   0  0.105
      1477  59.1091350 -38.1306249     65.8916   1255.2147   2  0.235
      1478  58.6076747 -38.1335000   1485.3094   1246.1542   0  0.080
      1479  58.9279734 -38.1298956    577.9506   1258.6062   0  0.507
      1480  58.7951967 -38.1324985    954.1357   1249.9552   0  0.032
      1481  58.7348074 -38.1358291   1124.7231   1238.3435   0  0.293
      1482  58.7768328 -38.1280565   1006.4241   1266.1378   0  0.004
      1483  58.5342035 -38.1383756   1692.9998   1227.4989   0  0.353
      1484  58.8344186 -38.1585948    840.5042   1155.8357   0  0.001
      1485  58.6765435 -38.1299638   1291.7550   1257.9507   0  0.013
      1486  59.1038367 -38.1303622     79.3743   1256.4440   2  0.149
      1487  58.5822515 -38.1320732   1557.2952   1250.8619   0  0.416
      1488  58.6511139 -38.1324408   1361.8175   1249.6813   0  0.501
      1489  58.9050234 -38.1318685    643.0597   1251.8070   2  0.025
      1490  58.7461105 -38.1299986   1092.5537   1258.8726   0  0.561
      1491  58.8185047 -38.1333246    887.7224   1247.0000   0  0.480
      1492  58.8086189 -38.1377726    916.0084   1231.4984   0  0.371
      1493  58.6899582 -38.1338626   1252.3420   1244.9666   0  0.606
      1494  58.7577610 -38.1466671   1059.1202   1199.2815   0  0.251
      1495  58.4264805 -38.1392216   1998.1359   1221.7463   0  0.128
      1496  58.9082411 -38.1526981    634.4341   1177.4237   0  0.492
      1497  58.7203187 -38.1491572   1165.9097   1190.6440   0  0.274
      1498  58.5985118 -38.1254314   1511.4906   1275.3185   0  0.215
      1499  58.5073133 -38.1519299   1769.4119   1179.0364   2  0.109
      1500  58.9866221 -38.1395247    412.2884   1223.7166   0  0.528
      1501  59.0488398 -38.1546719    236.4795   1168.9862   0  0.480
      1502  58.8167478 -38.1472142    892.5422   1196.6538   0  0.486
      1503  59.1193706 -38.1294839     35.0520   1261.2278   0  0.017
      1504  58.4928463 -38.1477300   1809.2451   1193.5907   0  0.460
      1505  58.5489812 -38.1567377   1650.4194   1162.9221   2  0.585
      1506  58.5066821 -38.1310950   1771.1536   1254.6354   0  0.016
      1507  59.0106391 -38.1397560    344.7658   1221.9911   0  0.063
      1508  58.5204497 -38.1325139   1732.3093   1249.2286   0  0.470
      1509  59.0710672 -38.1479506    172.5183   1192.8254   0  0.039
      1510  58.8520588 -38.1377505    792.6412   1231.4464   0  0.433
      1511  58.7129019 -38.1480427   1186.8273   1193.7791   0  0.529
      1512  58.6772271 -38.1477421   1287.9733   1194.8574   0  0.596
      1513  58.7355079 -38.1480515   1122.9735   1193.5010   0  0.389
      1514  58.8036762 -38.1413853    929.7222   1217.8484   0  0.497
      1515  58.7217368 -38.1413800   1162.2856   1218.4594   0  0.276
      1516  58.5928141 -38.1451452   1526.3575   1204.0730   0  0.501
      1517  58.5649155 -38.1434332   1605.8721   1209.3353   0  0.878
      1518  59.0014661 -38.1428299    369.5765   1211.5927   0  0.034
      1519  58.9018652 -38.1429832    651.8099   1212.3799   0  0.436
      1520  58.4571951 -38.1420851   1911.7148   1211.5820   0  0.504
      1521  59.0357392 -38.1463688    273.0427   1198.9989   0  0.422
      1522  59.1300070 -38.1380631      5.4413   1228.0131   0  0.348
      1523  58.4447764 -38.1548293   1946.1541   1167.4711   0  0.137
      1524  58.4363161 -38.1509167   1969.8685   1181.8153   0  0.062
      1525  58.7411614 -38.1430531   1108.3903   1213.8306   0  0.578
      1526  58.6182501 -38.1426808   1455.1737   1212.5072   0  0.111
      1527  58.7725894 -37.9411114   1018.1669   1939.1410   0  0.949
      1528  58.9820872 -38.1589775    424.1767   1153.8735   0  0.755
      1529  58.8976336 -38.1468767    663.6730   1197.7023   0  0.406
      1530  58.5748021 -38.1445611   1578.8481   1206.6135   0  0.161
      1531  59.0106748 -38.1505893    343.3545   1183.4081   0  0.385
      1532  58.5027344 -38.1483084   1781.5145   1192.2604   0  0.544
      1533  58.4441096 -38.1459385   1947.7245   1199.4786   0  0.066
      1534  59.0732073 -38.1529451    166.5639   1175.7274   0  0.072
      1535  58.7422190 -38.1483311   1103.6699   1192.9205   0  0.504
      1536  58.5433739 -38.1422826   1667.3690   1213.4546   0  0.467
      1537  58.8591364 -38.1494121    774.2485   1188.8497   0  0.034
      1538  59.0965189 -38.1523273    100.9413   1176.8439   0  0.523
      1539  59.1201555 -38.1458706     33.2652   1199.9530   0  0.565
      1540  59.1074810 -38.1547965     70.4889   1167.4052   0  0.287
      1541  59.1307806 -38.1516719      3.7174   1179.5605   0  0.478
      1542  58.6012833 -38.1484910   1502.7377   1191.4109   0  0.502
      1543  58.5111900 -38.1544385   1758.2039   1170.1576   2  0.176
      1544  58.9460293 -38.1490367    526.9985   1190.0045   0  0.374
      1545  58.9877180 -38.1517450    409.3769   1180.3727   0  0.438
      1546  58.6440154 -38.1529890   1381.6115   1175.6071   0  0.477
      1547  58.7033682 -38.1444265   1213.5527   1206.8464   0  0.483
      1548  58.6825146 -38.1566351   1273.4766   1162.9994   0  0.476
      1549  59.0711176 -38.1601727    172.2943   1148.4203   0  0.179
      1550  58.6570803 -38.1563356   1344.6722   1164.3325   0  0.359
      1551  58.6330623 -38.1543656   1413.6078   1171.1353   0  0.530
      1552  58.5546498 -38.1511927   1638.9146   1180.0200   2  0.122
      1553  58.6104409 -38.1604482   1477.0973   1149.0634   0  0.068
      1554  59.0378992 -38.1574750    266.2545   1159.6808   0  0.043
      1555  59.0280019 -38.1558304    295.0926   1165.1178   0  0.038
      1556  58.4408655 -38.1603740   1957.4675   1147.1864   0  0.471
      1557  58.7740092 -38.1552788   1013.8531   1167.6259   0  0.829
      1558  58.9573503 -38.1559638    495.1721   1165.1292   0  0.518
      1559  58.4782832 -38.1679727   1850.8374   1121.1625   0  0.371
      1560  58.9248699 -38.1651775    586.4830   1130.7572   0  0.031
      1561  58.4941846 -38.1674554   1806.8390   1122.1201   0  0.021
      1562  59.0375724 -38.1646980    268.2275   1134.0106   0  0.150
      1563  58.6277543 -38.1590816   1428.2266   1153.4979   0  0.501
      1564  58.9525310 -37.9231921    506.6093   2002.9176   2  0.069
      1565  58.7757765 -38.1691676   1009.3703   1116.6420   0  0.054
      1566  58.4362881 -38.1570277   1969.7699   1160.1469   0  0.508
      1567  58.9181392 -38.1562973    605.5013   1164.0023   0  0.435
      1568  58.6121886 -38.1690617   1472.5269   1117.2957   0  0.105
      1569  58.8340554 -38.1472061    844.8701   1197.2036   0  0.130
      1570  58.8616218 -38.1596879    765.9999   1152.2052   0  0.498
      1571  58.8036883 -38.1677742    929.9800   1122.7065   0  0.019
      1572  59.0188351 -38.1611279    320.6040   1145.5251   0  0.133
      1573  58.6439895 -38.1679890   1381.9983   1122.3579   0  0.581
      1574  58.8634027 -38.1710754    761.5706   1110.8353   2  0.439
      1575  58.7436260 -38.1641648   1099.8883   1135.6707   0  0.420
      1576  58.5253024 -38.1597464   1718.4686   1151.3317   0  0.352
      1577  58.7383228 -38.1727746   1115.1664   1104.8418   0  0.439
      1578  58.6528277 -38.1646648   1356.8708   1134.5116   0  0.030
      1579  58.4097219 -38.1713940   2044.9674   1108.8131   8  0.160
      1580  58.9991114 -38.1803346    376.9864   1077.2708   0  0.507
      1581  58.9407881 -38.1734889    541.8333   1101.4181   2  0.606
      1582  58.9026189 -38.1690935    649.8272   1117.8263   0  0.362
      1583  59.0520749 -38.1691087    227.1091   1117.1846   0  0.489
      1584  58.9753883 -38.1637115    443.7197   1136.7422   0  0.047
      1585  58.5796830 -38.1690136   1563.9915   1117.6890   0  0.430
      1586  58.5192689 -38.1677893   1736.0582   1122.0856   0  0.018
      1587  58.4652105 -38.1679396   1887.9003   1120.8823   0  0.544
      1588  58.4182220 -38.1672530   2020.8248   1123.4954   0  0.767
      1589  58.7075888 -38.1652622   1201.4358   1131.8879   0  0.807
      1590  58.8852957 -38.1624450    699.1672   1141.6348   0  0.514
      1591  58.6001711 -38.1709894   1506.2531   1111.4877   0  0.532
      1592  58.8337244 -38.1727618    844.8096   1104.6768   0  0.017
      1593  58.9764647 -38.1695430    441.0201   1116.4927   0  0.441
      1594  59.1315586 -38.1661141      2.4637   1126.6633   8  0.491
      1595  59.0704305 -38.1648967    174.6246   1132.6018   0  0.121
      1596  58.7513973 -38.1691663   1078.5350   1118.3315   0  0.653
      1597  58.4266819 -38.1714447   1996.7123   1107.7885   0  0.076
      1598  58.6856733 -38.1744152   1264.0422   1098.3033   0  0.001
      1599  58.5038892 -37.9283092   1780.7776   1984.1248   0  0.065
      1600  58.4259542 -38.1758870   1999.4517   1091.8472   0  0.638
      1601  58.9220609 -38.1735145    595.0537   1101.7084   0  0.196
      1602  58.5379911 -38.1689388   1682.3267   1118.1030   0  0.412
      1603  59.1273217 -38.1666826     13.9833   1124.4996   0  0.369
      1604  58.9475103 -38.1770901    524.7236   1091.0745   2  0.054
      1605  58.7125249 -38.1780425   1187.6389   1086.3737   0  0.045
      1606  58.5489230 -38.1759043   1651.1361   1092.6027   0  0.304
      1607  58.9824955 -38.1778657    424.5152   1086.2217   0  0.013
      1608  59.0528473 -38.1860514    225.0069   1056.2947   0  0.489
      1609  58.9754243 -38.1764893    443.8352   1090.9961   0  0.540
      1610  59.1143357 -38.1850547     51.3736   1058.4382   0  0.586
      1611  58.5775326 -37.9126195   1573.6185   2042.4764   8  0.141
      1612  58.5157105 -38.1750039   1745.2644   1095.8093   2  0.041
      1613  58.9570848 -37.9137403    494.0190   2036.9625   0  0.523
      1614  58.8591624 -38.1708009    771.9821   1111.4878   2  0.148
      1615  58.4764673 -38.1801905   1856.3073   1076.5203   2  0.330
      1616  59.0588364 -38.1813147    207.6853   1072.6177   0  0.578
      1617  58.4145763 -38.1902978   2031.6958   1040.3069   0  0.423
      1618  59.0077878 -37.9142043    350.4966   2035.0013   0  0.363
      1619  58.5252351 -38.1797464   1718.4377   1078.2958   2  0.226
      1620  59.0256137 -38.1800024    301.8904   1077.9661   2  0.540
      1621  59.0252691 -38.1825031    303.8845   1069.2220   2  0.558
      1622  58.9556539 -38.1834665    499.5353   1066.6586   0  0.544
      1623  58.7299789 -37.9258265   1138.5200   1993.6216   0  0.985
      1624  58.5704632 -38.1812206   1589.4188   1074.0055   0  0.503
      1625  58.6768286 -38.1830196   1288.8188   1067.7543   0  0.014
      1626  58.9331468 -37.9157204    561.5198   2030.0135   0  0.484
      1627  58.5390035 -38.1839409   1679.1903   1064.0946   0  0.031
      1628  58.8280749 -38.1777647    860.7919   1086.8805   0  0.037
      1629  58.6701062 -38.1888474   1308.0056   1046.7831   0  0.468
      1630  58.5506738 -38.1811854   1645.5684   1074.4025   0  0.016
      1631  58.9574567 -37.9215176    493.3474   2009.1552   2  0.040
      1632  58.5845913 -38.1840215   1550.4108   1063.8636   0  0.474
      1633  58.6962664 -38.1816445   1233.7887   1072.6505   0  0.400
      1634  58.7121686 -38.1816534   1188.1538   1072.3833   0  0.129
      1635  59.0698061 -38.1848984    176.1096   1059.3479   0  0.052
      1636  58.5156882 -38.1813928   1744.4758   1072.9202   0  0.577
      1637  58.5486263 -37.9242354   1652.8982   1995.6693   0  0.012
      1638  58.4408398 -37.9309271   1959.9384   1973.9645   0  0.020
      1639  58.9722779 -38.1887170    452.8199   1047.7833   0  0.432
      1640  58.4820715 -37.9240909   1842.9973   1999.2244   0  0.583
      1641  58.5929869 -37.9281997   1528.2552   1984.4280   0  0.059
      1642  58.9620157 -38.1837341    482.3503   1065.3358   0  0.460
      1643  58.5764603 -38.1851195   1572.9225   1059.4377   0  0.368
      1644  58.4218131 -37.9328167   2014.4277   1965.4213   0  0.541
      1645  58.6877796 -38.1866389   1258.2036   1054.7477   0  0.331
      1646  58.9845520 -37.9150824    415.8708   2031.8751   0  0.380
      1647  58.8239955 -37.9158211    872.6078   2029.9984   2  0.110
      1648  58.4997082 -37.9160772   1793.3354   2028.2466   0  0.486
      1649  59.1040002 -37.9339707     76.7652   1963.5300   2  0.213
      1650  58.9996948 -37.9158871    373.2558   2029.3717   0  0.378
      1651  58.4708131 -37.9215627   1874.4200   2006.0931   0  0.301
      1652  58.8092107 -37.9224936    913.7404   2005.6179   0  0.470
      1653  59.1296259 -37.9166726      4.4378   2024.3132   8  0.036
      1654  58.8197702 -37.9158229    884.0001   2030.2064   2  0.245
      1655  59.0542878 -37.9202123    216.8083   2011.9326   0  0.086
      1656  58.6658644 -38.1893993   1319.5537   1045.2142   0  0.460
      1657  58.5320945 -37.9183696   1700.7435   2017.0508   0  0.043
      1658  58.8630769 -37.9144078    761.1805   2035.3013   0  0.500
      1659  58.5313614 -37.9272571   1703.3932   1987.8667   0  0.474
      1660  58.8500561 -37.9205285    797.2812   2013.2922   0  0.306
      1661  58.9106283 -37.9240829    625.1149   2002.9086   0  0.026
      1662  59.0018372 -37.9253275    367.3353   1994.9440   0  0.495
      1663  58.5817163 -37.9287377   1559.8978   1983.1401   0  0.415
      1664  58.6088482 -37.9218336   1482.3387   2007.6770   0  0.353
      1665  59.1074826 -37.9253495     66.5316   1994.3479   0  0.523
      1666  58.7806877 -37.9205551    994.6228   2012.7640   0  0.560
      1667  59.0782822 -37.9320965    151.3575   1970.7667   0  0.505
      1668  58.6662438 -37.9230095   1320.3682   2003.9111   0  0.396
      1669  59.0176371 -37.9114062    321.5558   2045.1226   8  0.697
      1670  58.6391497 -37.9115934   1396.6892   2045.1926   0  0.465
      1671  58.8222453 -37.9305442    877.0453   1975.7522   0  0.009
      1672  58.9831629 -37.9217516    420.0059   2007.9990   0  0.378
      1673  58.7018049 -37.9280357   1219.9465   1986.0321   0  0.141
      1674  59.0043437 -37.9383782    360.4708   1948.0183   0  0.481
      1675  58.5789229 -37.9195664   1567.7698   2015.4467   0  0.568
      1676  59.0673613 -37.9312913    180.8277   1972.8292   0  0.676
      1677  58.8074536 -37.9294387    919.3609   1981.3961   0  0.482
      1678  59.0719484 -38.1901708    170.8743   1040.6255   0  0.361
      1679  58.8673233 -37.9305157    749.1321   1977.4895   2  0.495
      1680  58.4510625 -37.9287330   1930.2111   1982.9742   0  0.135
      1681  58.5538807 -37.9336897   1638.9493   1964.8378   0  0.897
      1682  58.8289359 -37.9297077    858.1714   1980.3558   0  0.204
      1683  58.7113083 -37.9341521   1191.1005   1964.5876   0  0.136
      1684  59.1258091 -37.9283511     15.0642   1982.9230   0  0.743
      1685  58.6503982 -37.9227167   1364.9956   2004.8052   0  0.464
      1686  58.8866976 -37.9335536    694.2723   1966.6445   0  0.370
      1687  58.6274879 -37.9338023   1429.8760   1965.3352   0  0.498
      1688  58.7472333 -37.9288868   1089.7909   1982.8215   0  0.814
      1689  58.4246058 -37.9381028   2006.1057   1948.6747   0  0.070
      1690  58.4901570 -37.9277217   1820.3541   1985.6587   0  0.029
      1691  58.5729025 -37.9323343   1584.6210   1970.4379   0  0.502
      1692  58.9236743 -37.9321223    588.0349   1971.2085   0  0.571
      1693  58.6813786 -37.9288554   1275.0422   1983.1870   0  0.002
      1694  58.7063972 -37.9116492   1206.3276   2045.4565   0  0.492
      1695  58.8033459 -38.1919409    930.8720   1035.8744   0  0.347
      1696  58.5841554 -37.9390195   1552.4344   1946.0941   2  0.467
